T100 WAVELENGTH,T100 POWER,BRISTOL WAVELENGTH,BRISTOL POWER,POWER METER POWER
1360,-0.05,1360.1069,-0.880,+6.01165600E-010
1360.1,-0.04,1360.2090,-0.870,+6.01996100E-010
1360.2,-0.05,1360.3095,-0.900,+6.01124300E-010
1360.3,-0.05,1360.4088,-0.990,+6.04429700E-010
1360.4,-0.04,1360.5034,-0.850,+6.04758900E-010
1360.5,-0.04,1360.6045,-0.950,+6.04805700E-010
1360.6,-0.04,1360.7043,-0.870,+6.05380600E-010
1360.7,-0.05,1360.8030,-0.940,+6.04398500E-010
1360.8,-0.04,1360.9034,-0.930,+6.04399800E-010
1360.9,-0.05,1361.0021,-0.850,+6.04352100E-010
1361,-0.05,1361.1015,-1.150,+6.01143400E-010
1361.1,-0.05,1361.1979,-0.860,+6.01667300E-010
1361.2,-0.04,1361.2964,-0.990,+6.02562900E-010
1361.3,-0.04,1361.3996,-0.890,+6.03077400E-010
1361.4,-0.04,1361.4989,-0.970,+6.03109200E-010
1361.5,-0.05,1361.5981,-0.890,+6.02417900E-010
1361.6,-0.04,1361.6979,-1.180,+6.03553200E-010
1361.7,-0.04,1361.7980,-0.920,+6.03499800E-010
1361.8,-0.04,1361.8956,-0.850,+6.02824600E-010
1361.9,-0.05,1361.9978,-0.870,+6.02121000E-010
1362,-0.04,1362.0949,-0.910,+6.01129700E-010
1362.1,-0.05,1362.1966,-0.880,+6.02531100E-010
1362.2,-0.05,1362.2958,-0.890,+6.00902600E-010
1362.3,-0.05,1362.3931,-1.120,+6.03587900E-010
1362.4,-0.05,1362.4930,-0.920,+6.02790500E-010
1362.5,-0.04,1362.5931,-0.950,+6.05607100E-010
1362.6,-0.05,1362.6900,-0.840,+6.04963100E-010
1362.7,-0.04,1362.7900,-0.880,+6.04626000E-010
1362.8,-0.05,1362.8919,-0.900,+6.05250000E-010
1362.9,-0.04,1362.9916,-0.850,+6.04859600E-010
1363,-0.05,1363.0932,-0.910,+6.06035300E-010
1363.1,-0.04,1363.1901,-0.910,+6.05566500E-010
1363.2,-0.05,1363.2891,-0.940,+6.05631500E-010
1363.3,-0.04,1363.3929,-0.850,+6.06443600E-010
1363.4,-0.05,1363.4907,-0.940,+6.05433100E-010
1363.5,-0.04,1363.5866,-0.830,+6.04766900E-010
1363.6,-0.04,1363.6822,-0.840,+6.05053300E-010
1363.7,-0.05,1363.7818,-0.930,+6.04867200E-010
1363.8,-0.05,1363.8863,-0.930,+6.04596100E-010
1363.9,-0.04,1363.9880,-0.960,+6.04952800E-010
1364,-0.04,1364.0888,-0.890,+6.04993900E-010
1364.1,-0.05,1364.1855,-1.030,+6.04324100E-010
1364.2,-0.04,1364.2840,-0.910,+6.04442700E-010
1364.3,-0.04,1364.3860,-1.040,+6.04480900E-010
1364.4,-0.05,1364.4862,-0.880,+6.03838500E-010
1364.5,-0.05,1364.5835,-0.920,+6.04390700E-010
1364.6,-0.04,1364.6870,-1.490,+6.03647200E-010
1364.7,-0.04,1364.8148,-1.080,+6.02012600E-010
1364.8,-0.04,1364.9162,-0.940,+6.01826300E-010
1364.9,-0.05,1365.0173,-1.180,+6.01826200E-010
1365,-0.04,1365.1152,-0.860,+6.00721600E-010
1365.1,-0.05,1365.2159,-0.900,+6.01165900E-010
1365.2,-0.04,1365.3125,-0.940,+6.01199800E-010
1365.3,-0.04,1365.4119,-0.870,+6.00169200E-010
1365.4,-0.04,1365.5110,-0.990,+6.01022700E-010
1365.5,-0.04,1365.6152,-0.880,+6.01449800E-010
1365.6,-0.05,1365.7137,-1.130,+6.02262100E-010
1365.7,-0.04,1365.8091,-0.860,+6.01865200E-010
1365.8,-0.05,1365.9077,-0.840,+6.02503900E-010
1365.9,-0.05,1366.0093,-1.000,+6.01437600E-010
1366,-0.04,1366.1094,-0.830,+5.95640500E-010
1366.1,-0.04,1366.2087,-1.150,+5.99894500E-010
1366.2,-0.04,1366.3065,-0.760,+6.00502100E-010
1366.3,-0.05,1366.4093,-0.880,+6.00264600E-010
1366.4,-0.04,1366.5102,-0.850,+6.00877500E-010
1366.5,-0.05,1366.6112,-0.940,+5.99894800E-010
1366.6,-0.04,1366.7116,-0.820,+6.01085200E-010
1366.7,-0.04,1366.8086,-0.880,+6.00562300E-010
1366.8,-0.05,1366.9044,-0.980,+6.01237400E-010
1366.9,-0.04,1367.0058,-0.780,+6.03465900E-010
1367,-0.04,1367.1053,-0.830,+6.03995900E-010
1367.1,-0.05,1367.2082,-0.810,+6.03453600E-010
1367.2,-0.04,1367.3070,-0.830,+6.03610000E-010
1367.3,-0.05,1367.4034,-0.880,+6.03424500E-010
1367.4,-0.04,1367.5027,-0.840,+6.03294400E-010
1367.5,-0.05,1367.6035,-0.930,+6.03082700E-010
1367.6,-0.04,1367.7036,-0.820,+6.03133800E-010
1367.7,-0.05,1367.8023,-0.860,+6.03352200E-010
1367.8,-0.04,1367.9008,-0.960,+6.03097700E-010
1367.9,-0.04,1367.9989,-0.850,+6.03378300E-010
1368,-0.04,1368.1040,-0.850,+6.03170200E-010
1368.1,-0.04,1368.2019,-0.810,+6.03024200E-010
1368.2,-0.05,1368.2985,-0.880,+6.03371400E-010
1368.3,-0.05,1368.3962,-0.870,+6.02461800E-010
1368.4,-0.05,1368.4951,-0.810,+6.02633600E-010
1368.5,-0.04,1368.5958,-1.460,+6.02523700E-010
1368.6,-0.05,1368.7236,-0.820,+6.02385700E-010
1368.7,-0.05,1368.8239,-0.940,+6.02708600E-010
1368.8,-0.05,1368.9266,-0.800,+6.02215700E-010
1368.9,-0.04,1369.0249,-0.860,+6.01777000E-010
1369,-0.04,1369.1237,-0.770,+6.02085200E-010
1369.1,-0.05,1369.2231,-0.780,+6.01951600E-010
1369.2,-0.04,1369.3236,-0.830,+6.01224100E-010
1369.3,-0.04,1369.4214,-0.780,+6.01841400E-010
1369.4,-0.05,1369.5184,-0.820,+6.01701100E-010
1369.5,-0.04,1369.6184,-0.790,+6.01323900E-010
1369.6,-0.04,1369.7232,-0.840,+6.00871000E-010
1369.7,-0.05,1369.8243,-0.840,+6.01081600E-010
1369.8,-0.05,1369.9230,-0.840,+6.01103700E-010
1369.9,-0.04,1370.0196,-0.920,+6.01343300E-010
1370,-0.05,1370.1164,-0.860,+6.01008000E-010
1370.1,-0.04,1370.2166,-0.790,+6.00953200E-010
1370.2,-0.05,1370.3178,-0.900,+6.00206500E-010
1370.3,-0.05,1370.4186,-0.850,+6.00452600E-010
1370.4,-0.04,1370.5120,-0.830,+6.00510500E-010
1370.5,-0.05,1370.6135,-0.820,+6.00567500E-010
1370.6,-0.04,1370.7140,-0.770,+6.00119500E-010
1370.7,-0.04,1370.8162,-0.900,+6.00278700E-010
1370.8,-0.04,1370.9147,-0.820,+6.00761300E-010
1370.9,-0.05,1371.0107,-0.940,+6.00231200E-010
1371,-0.05,1371.1128,-0.830,+5.99748500E-010
1371.1,-0.04,1371.2134,-0.820,+6.00353600E-010
1371.2,-0.05,1371.3143,-0.920,+5.99896900E-010
1371.3,-0.05,1371.4134,-0.740,+5.99683500E-010
1371.4,-0.04,1371.5129,-0.860,+5.99910000E-010
1371.5,-0.04,1371.6130,-0.830,+5.99688600E-010
1371.6,-0.04,1371.7117,-0.820,+5.99271600E-010
1371.7,-0.05,1371.8123,-0.910,+5.99831100E-010
1371.8,-0.05,1371.9117,-0.810,+5.99464900E-010
1371.9,-0.04,1372.0112,-0.850,+5.99521500E-010
1372,-0.04,1372.1076,-0.980,+5.99038200E-010
1372.1,-0.04,1372.2070,-0.810,+5.98892200E-010
1372.2,-0.05,1372.3076,-0.930,+5.98989300E-010
1372.3,-0.05,1372.4081,-0.830,+5.99061400E-010
1372.4,-0.04,1372.5075,-0.720,+5.98858300E-010
1372.5,-0.04,1372.6100,-0.800,+5.98385300E-010
1372.6,-0.05,1372.7102,-0.800,+5.98773300E-010
1372.7,-0.05,1372.8054,-0.810,+5.98466800E-010
1372.8,-0.04,1372.9057,-0.770,+5.98678300E-010
1372.9,-0.05,1373.0045,-0.750,+5.98192100E-010
1373,-0.04,1373.1015,-0.810,+5.98308000E-010
1373.1,-0.04,1373.1981,-0.840,+5.97764600E-010
1373.2,-0.05,1373.2993,-0.750,+1.98239900E-011
1373.3,-0.05,1373.3983,-0.940,+1.98475600E-011
1373.4,-0.04,1373.4988,-0.890,+1.97341000E-011
1373.5,-0.05,1373.6012,-0.910,+1.97227600E-011
1373.6,-0.04,1373.6966,-1.070,+2.03794700E-011
1373.7,-0.04,1373.7978,-0.870,+2.00560500E-011
1373.8,-0.04,1373.8966,-0.870,+1.93926600E-011
1373.9,-0.04,1373.9953,-0.850,+1.97955200E-011
1374,-0.04,1374.0944,-0.840,+1.93983100E-011
1374.1,-0.04,1374.1931,-0.880,+1.96170800E-011
1374.2,-0.05,1374.2906,-0.910,+1.96294000E-011
1374.3,-0.04,1374.3915,-0.870,+2.00275200E-011
1374.4,-0.05,1374.5203,-0.840,+1.95552700E-011
1374.5,-0.05,1374.6228,-0.770,+1.96595800E-011
1374.6,-0.05,1374.7207,-1.110,+1.97615700E-011
1374.7,-0.04,1374.8207,-0.780,+2.00317200E-011
1374.8,-0.04,1374.9204,-0.850,+2.00339200E-011
1374.9,-0.04,1375.0204,-0.860,+1.96190400E-011
1375,-0.04,1375.1190,-0.740,+1.97972400E-011
1375.1,-0.04,1375.2160,-0.790,+2.00661500E-011
1375.2,-0.05,1375.3143,-0.870,+1.96425500E-011
1375.3,-0.05,1375.4130,-0.790,+1.98710300E-011
1375.4,-0.04,1375.5151,-0.870,+1.98026300E-011
1375.5,-0.04,1375.6186,-0.740,+1.98765600E-011
1375.6,-0.05,1375.7160,-0.750,+1.99481700E-011
1375.7,-0.05,1375.8142,-1.060,+1.97318900E-011
1375.8,-0.04,1375.9142,-0.880,+2.01350100E-011
1375.9,-0.05,1376.0150,-0.830,+1.96568300E-011
1376,-0.04,1376.1145,-0.790,+2.00105000E-011
1376.1,-0.04,1376.2131,-0.770,+1.96455700E-011
1376.2,-0.04,1376.3083,-0.760,+1.98794500E-011
1376.3,-0.04,1376.4072,-0.870,+1.98558900E-011
1376.4,-0.04,1376.5058,-0.780,+1.94205800E-011
1376.5,-0.04,1376.6099,-0.820,+1.97842100E-011
1376.6,-0.04,1376.7081,-0.880,+1.94172200E-011
1376.7,-0.04,1376.8063,-0.770,+1.99978100E-011
1376.8,-0.05,1376.9045,-0.760,+1.95492400E-011
1376.9,-0.04,1377.0056,-0.870,+1.96208000E-011
1377,-0.04,1377.1062,-0.730,+1.96923300E-011
1377.1,-0.04,1377.2061,-0.840,+1.96878600E-011
1377.2,-0.04,1377.3061,-0.750,+1.95279200E-011
1377.3,-0.05,1377.4045,-0.740,+1.99325900E-011
1377.4,-0.04,1377.5030,-0.850,+2.00901400E-011
1377.5,-0.04,1377.6076,-0.840,+1.95335100E-011
1377.6,-0.05,1377.7061,-0.820,+1.98340400E-011
1377.7,-0.05,1377.8056,-0.770,+1.97926800E-011
1377.8,-0.04,1377.9038,-0.740,+1.99545900E-011
1377.9,-0.05,1378.0042,-0.790,+1.99657100E-011
1378,-0.05,1378.1011,-0.860,+1.98428300E-011
1378.1,-0.04,1378.1992,-0.790,+1.96875700E-011
1378.2,-0.05,1378.2970,-0.770,+1.96071400E-011
1378.3,-0.04,1378.3930,-0.760,+1.94653600E-011
1378.4,-0.05,1378.4892,-1.050,+1.97556500E-011
1378.5,-0.05,1378.5925,-0.830,+1.94654400E-011
1378.6,-0.04,1378.6918,-0.770,+1.94832500E-011
1378.7,-0.04,1378.7888,-0.900,+1.96183300E-011
1378.8,-0.04,1378.8851,-0.800,+1.97689900E-011
1378.9,-0.05,1378.9829,-0.770,+1.97043000E-011
1379,-0.04,1379.0838,-0.880,+1.96696600E-011
1379.1,-0.04,1379.1832,-0.790,+1.98894700E-011
1379.2,-0.05,1379.2809,-0.820,+1.94476700E-011
1379.3,-0.05,1379.3779,-0.800,+1.97008600E-011
1379.4,-0.05,1379.4770,-0.790,+1.95927200E-011
1379.5,-0.04,1379.5802,-0.750,+1.95827000E-011
1379.6,-0.04,1379.6809,-1.030,+1.94377300E-011
1379.7,-0.05,1379.8099,-0.810,+1.92916900E-011
1379.8,-0.04,1379.9065,-0.770,+1.95537300E-011
1379.9,-0.05,1380.0054,-0.790,+1.94188100E-011
1380,-0.04,1380.1061,-0.760,+4.69119700E-010
1380.1,-0.04,1380.2066,-0.880,+4.68987100E-010
1380.2,-0.04,1380.3065,-0.780,+4.72683800E-010
1380.3,-0.05,1380.4061,-0.770,+4.76365400E-010
1380.4,-0.04,1380.5031,-0.790,+4.80003800E-010
1380.5,-0.05,1380.6023,-0.990,+4.83257200E-010
1380.6,-0.04,1380.7026,-0.870,+4.86744600E-010
1380.7,-0.04,1380.8042,-0.920,+4.89781500E-010
1380.8,-0.05,1380.9027,-0.810,+4.93582500E-010
1380.9,-0.04,1381.0004,-0.750,+4.96547900E-010
1381,-0.04,1381.0972,-0.820,+4.99938900E-010
1381.1,-0.04,1381.1973,-1.050,+5.02505300E-010
1381.2,-0.04,1381.2988,-0.750,+5.05894700E-010
1381.3,-0.04,1381.3960,-0.760,+5.08965200E-010
1381.4,-0.05,1381.4949,-0.840,+5.11695500E-010
1381.5,-0.04,1381.5923,-0.800,+5.14326200E-010
1381.6,-0.05,1381.6950,-0.750,+5.16922000E-010
1381.7,-0.05,1381.7955,-1.090,+5.19210000E-010
1381.8,-0.05,1381.8944,-0.740,+5.21814700E-010
1381.9,-0.05,1381.9918,-0.750,+5.24082700E-010
1382,-0.04,1382.0881,-0.790,+5.26420200E-010
1382.1,-0.04,1382.1921,-0.790,+5.28226400E-010
1382.2,-0.04,1382.2933,-0.760,+5.30647700E-010
1382.3,-0.04,1382.3924,-0.850,+5.33209900E-010
1382.4,-0.04,1382.4908,-0.930,+5.34863400E-010
1382.5,-0.04,1382.5912,-0.800,+5.36652100E-010
1382.6,-0.04,1382.6904,-0.950,+5.38732700E-010
1382.7,-0.04,1382.7906,-0.890,+5.39863900E-010
1382.8,-0.04,1382.8895,-0.780,+5.41924800E-010
1382.9,-0.04,1382.9899,-0.870,+5.43177600E-010
1383,-0.04,1383.0906,-0.870,+5.44855600E-010
1383.1,-0.05,1383.1897,-0.760,+5.46149800E-010
1383.2,-0.04,1383.2906,-0.830,+5.47184000E-010
1383.3,-0.04,1383.3885,-0.790,+5.49113100E-010
1383.4,-0.04,1383.4888,-0.790,+5.50019100E-010
1383.5,-0.05,1383.5897,-0.790,+5.51661900E-010
1383.6,-0.04,1383.6881,-0.820,+5.52920400E-010
1383.7,-0.05,1383.7883,-0.800,+5.54197500E-010
1383.8,-0.04,1383.8876,-1.070,+5.55040200E-010
1383.9,-0.04,1383.9910,-0.750,+5.56007200E-010
1384,-0.04,1384.0880,-0.760,+5.56831900E-010
1384.1,-0.04,1384.1859,-0.820,+5.57397700E-010
1384.2,-0.05,1384.3159,-0.730,+5.58635500E-010
1384.3,-0.04,1384.4158,-0.760,+5.59816200E-010
1384.4,-0.05,1384.5182,-0.830,+5.60091900E-010
1384.5,-0.04,1384.6164,-0.800,+5.61345600E-010
1384.6,-0.04,1384.7134,-0.750,+5.62090200E-010
1384.7,-0.04,1384.8126,-0.780,+5.63205800E-010
1384.8,-0.05,1384.9180,-0.860,+5.63619500E-010
1384.9,-0.05,1385.0163,-0.780,+5.64205100E-010
1385,-0.04,1385.1158,-1.190,+5.65242600E-010
1385.1,-0.05,1385.2126,-0.820,+5.65305700E-010
1385.2,-0.05,1385.3104,-0.790,+5.65856300E-010
1385.3,-0.05,1385.4160,-0.900,+5.66288300E-010
1385.4,-0.04,1385.5141,-0.870,+1.93168700E-011
1385.5,-0.04,1385.6101,-0.810,+1.94688600E-011
1385.6,-0.04,1385.7057,-0.760,+5.59397400E-010
1385.7,-0.04,1385.8081,-0.820,+5.57949400E-010
1385.8,-0.05,1385.9090,-0.940,+5.59169200E-010
1385.9,-0.04,1386.0067,-0.750,+5.57492400E-010
1386,-0.04,1386.1072,-0.800,+5.60338300E-010
1386.1,-0.04,1386.2057,-0.810,+5.60396300E-010
1386.2,-0.04,1386.3063,-0.740,+5.61254500E-010
1386.3,-0.04,1386.4051,-0.900,+5.62543100E-010
1386.4,-0.05,1386.5046,-0.880,+5.63250500E-010
1386.5,-0.05,1386.6042,-0.770,+5.63233000E-010
1386.6,-0.05,1386.7062,-0.770,+5.64031800E-010
1386.7,-0.04,1386.8037,-0.840,+5.64287300E-010
1386.8,-0.05,1386.9030,-0.820,+5.65150100E-010
1386.9,-0.05,1387.0017,-0.780,+5.65874300E-010
1387,-0.04,1387.1028,-0.780,+5.66511100E-010
1387.1,-0.05,1387.2051,-0.820,+5.66590400E-010
1387.2,-0.04,1387.3011,-0.780,+5.68067400E-010
1387.3,-0.05,1387.3981,-0.800,+5.68060300E-010
1387.4,-0.05,1387.4967,-0.800,+5.67694800E-010
1387.5,-0.05,1387.5978,-0.880,+5.69139100E-010
1387.6,-0.05,1387.6988,-0.770,+5.69350700E-010
1387.7,-0.05,1387.7967,-0.820,+5.69400800E-010
1387.8,-0.05,1387.8959,-0.990,+5.69937100E-010
1387.9,-0.05,1387.9940,-0.790,+5.70679900E-010
1388,-0.04,1388.0971,-0.790,+5.70283600E-010
1388.1,-0.04,1388.1962,-0.810,+5.71096200E-010
1388.2,-0.05,1388.2936,-0.920,+5.71006100E-010
1388.3,-0.05,1388.3921,-0.840,+5.71861600E-010
1388.4,-0.05,1388.4902,-0.840,+5.71313100E-010
1388.5,-0.04,1388.5958,-0.870,+5.71621700E-010
1388.6,-0.05,1388.6953,-0.800,+5.72332100E-010
1388.7,-0.04,1388.7913,-0.790,+5.72439600E-010
1388.8,-0.05,1388.8879,-0.780,+5.72233500E-010
1388.9,-0.04,1388.9916,-0.850,+5.72402700E-010
1389,-0.05,1389.0914,-0.820,+5.73007900E-010
1389.1,-0.05,1389.1913,-0.750,+5.71405500E-010
1389.2,-0.04,1389.2884,-0.820,+5.71975400E-010
1389.3,-0.04,1389.3861,-0.890,+5.72037600E-010
1389.4,-0.05,1389.4876,-0.790,+5.71515800E-010
1389.5,-0.05,1389.5877,-0.760,+5.71316700E-010
1389.6,-0.04,1389.6905,-0.890,+5.71430500E-010
1389.7,-0.05,1389.7881,-0.830,+5.71731000E-010
1389.8,-0.04,1389.8890,-0.870,+5.71433300E-010
1389.9,-0.05,1389.9881,-0.850,+5.71542900E-010
1390,-0.05,1390.0892,-0.820,+5.64737100E-010
1390.1,-0.04,1390.1895,-0.790,+5.65006000E-010
1390.2,-0.05,1390.2871,-0.850,+5.67110900E-010
1390.3,-0.05,1390.3877,-0.910,+5.65244100E-010
1390.4,-0.05,1390.4851,-0.920,+5.65088500E-010
1390.5,-0.05,1390.5829,-0.800,+5.65458900E-010
1390.6,-0.05,1390.7139,-0.900,+5.64641800E-010
1390.7,-0.04,1390.8162,-0.810,+5.65015500E-010
1390.8,-0.04,1390.9154,-0.810,+5.70943000E-010
1390.9,-0.05,1391.0128,-0.890,+5.71266600E-010
1391,-0.05,1391.1107,-0.850,+5.66099700E-010
1391.1,-0.05,1391.2156,-0.860,+5.68075300E-010
1391.2,-0.04,1391.3129,-0.860,+5.68110300E-010
1391.3,-0.05,1391.4126,-1.100,+5.67831300E-010
1391.4,-0.04,1391.5117,-0.850,+5.66834900E-010
1391.5,-0.04,1391.6150,-0.840,+5.68119200E-010
1391.6,-0.05,1391.7137,-0.880,+5.68345900E-010
1391.7,-0.04,1391.8141,-0.840,+5.68138400E-010
1391.8,-0.04,1391.9129,-0.780,+5.68545800E-010
1391.9,-0.04,1392.0124,-0.810,+5.69926700E-010
1392,-0.04,1392.1112,-0.900,+5.73517800E-010
1392.1,-0.05,1392.2094,-0.910,+5.73368800E-010
1392.2,-0.04,1392.3096,-0.830,+5.73707600E-010
1392.3,-0.04,1392.4123,-0.910,+5.72301300E-010
1392.4,-0.04,1392.5077,-1.050,+5.72123800E-010
1392.5,-0.04,1392.6069,-0.880,+5.72109300E-010
1392.6,-0.05,1392.7061,-0.810,+5.64002200E-010
1392.7,-0.04,1392.8037,-0.850,+5.72632800E-010
1392.8,-0.05,1392.9065,-0.900,+5.73366400E-010
1392.9,-0.05,1393.0052,-0.870,+5.71389900E-010
1393,-0.05,1393.1030,-0.780,+5.71354600E-010
1393.1,-0.05,1393.2015,-0.810,+5.72447800E-010
1393.2,-0.05,1393.3054,-1.080,+5.74540200E-010
1393.3,-0.04,1393.4045,-0.850,+5.74273500E-010
1393.4,-0.04,1393.5035,-0.790,+5.72962200E-010
1393.5,-0.05,1393.6010,-0.830,+5.73568600E-010
1393.6,-0.04,1393.7056,-0.850,+5.73932900E-010
1393.7,-0.05,1393.8053,-0.790,+5.73908200E-010
1393.8,-0.05,1393.9052,-0.860,+5.71011800E-010
1393.9,-0.04,1394.0028,-0.850,+5.70462100E-010
1394,-0.05,1394.1029,-0.910,+5.70448700E-010
1394.1,-0.04,1394.2018,-0.880,+5.71354600E-010
1394.2,-0.05,1394.3007,-0.830,+5.71354000E-010
1394.3,-0.04,1394.4012,-0.870,+5.71927900E-010
1394.4,-0.04,1394.5020,-0.900,+5.71538500E-010
1394.5,-0.04,1394.5972,-0.860,+5.71088800E-010
1394.6,-0.05,1394.6974,-0.830,+5.71432000E-010
1394.7,-0.05,1394.7976,-0.850,+5.73988600E-010
1394.8,-0.04,1394.8991,-1.000,+5.72773100E-010
1394.9,-0.04,1394.9977,-1.180,+5.69066600E-010
1395,-0.04,1395.0936,-0.830,+5.75654000E-010
1395.1,-0.04,1395.1919,-0.850,+5.75746700E-010
1395.2,-0.05,1395.2911,-0.860,+5.76208500E-010
1395.3,-0.04,1395.3942,-0.800,+5.76351500E-010
1395.4,-0.04,1395.4953,-0.900,+5.76010500E-010
1395.5,-0.05,1395.5935,-0.890,+5.76587400E-010
1395.6,-0.04,1395.6876,-0.850,+5.76338500E-010
1395.7,-0.04,1395.7907,-0.940,+5.76502500E-010
1395.8,-0.05,1395.8908,-0.820,+5.76090000E-010
1395.9,-0.04,1395.9896,-0.780,+5.76495600E-010
1396,-0.04,1396.0871,-0.790,+5.76291700E-010
1396.1,-0.05,1396.1898,-0.940,+5.76323700E-010
1396.2,-0.05,1396.2888,-0.820,+5.76089900E-010
1396.3,-0.05,1396.3872,-1.080,+5.75453500E-010
1396.4,-0.05,1396.4870,-0.900,+5.75555700E-010
1396.5,-0.05,1396.5885,-1.240,+5.76074400E-010
1396.6,-0.04,1396.6847,-0.870,+5.75556700E-010
1396.7,-0.05,1396.7820,-0.850,+5.75782500E-010
1396.8,-0.04,1396.8804,-0.830,+5.75964400E-010
1396.9,-0.05,1396.9834,-0.870,+5.75171800E-010
1397,-0.04,1397.0824,-1.110,+5.75022500E-010
1397.1,-0.04,1397.1782,-0.910,+5.75102300E-010
1397.2,-0.04,1397.2766,-0.900,+5.75380500E-010
1397.3,-0.05,1397.3805,-0.910,+5.75021900E-010
1397.4,-0.05,1397.4785,-0.910,+5.75441000E-010
1397.5,-0.04,1397.5783,-0.900,+5.75049700E-010
1397.6,-0.05,1397.6760,-0.860,+5.74772400E-010
1397.7,-0.05,1397.7741,-0.840,+5.75104800E-010
1397.8,-0.04,1397.8745,-0.890,+5.75092100E-010
1397.9,-0.04,1397.9727,-0.860,+5.74987800E-010
1398,-0.05,1398.0714,-1.170,+5.74473200E-010
1398.1,-0.04,1398.1977,-0.870,+5.74831200E-010
1398.2,-0.04,1398.2993,-0.850,+5.74483000E-010
1398.3,-0.04,1398.3976,-0.850,+5.74512900E-010
1398.4,-0.04,1398.4966,-0.910,+5.75198100E-010
1398.5,-0.04,1398.5954,-0.790,+5.74910800E-010
1398.6,-0.04,1398.6958,-0.840,+5.74514300E-010
1398.7,-0.04,1398.7928,-0.850,+5.74812300E-010
1398.8,-0.04,1398.8916,-0.940,+5.75053400E-010
1398.9,-0.05,1398.9885,-0.930,+5.74992600E-010
1399,-0.05,1399.0920,-0.850,+5.75182400E-010
1399.1,-0.04,1399.1901,-0.820,+5.75259500E-010
1399.2,-0.04,1399.2874,-0.880,+5.75371600E-010
1399.3,-0.04,1399.3862,-0.860,+5.75414700E-010
1399.4,-0.04,1399.4901,-0.950,+5.75376900E-010
1399.5,-0.04,1399.5863,-0.930,+5.75402400E-010
1399.6,-0.04,1399.6855,-0.910,+5.74958400E-010
1399.7,-0.05,1399.7825,-0.860,+5.69432200E-010
1399.8,-0.05,1399.8852,-0.870,+5.56474900E-010
1399.9,-0.05,1399.9871,-0.860,+5.70670800E-010
1400,-0.05,1400.0864,-0.900,+5.69658800E-010
1400.1,-0.05,1400.1875,-0.850,+5.68373600E-010
1400.2,-0.04,1400.2878,-0.940,+5.68268100E-010
1400.3,-0.05,1400.3841,-1.220,+5.68217100E-010
1400.4,-0.04,1400.4877,-0.860,+5.68265900E-010
1400.5,-0.05,1400.5893,-0.840,+5.68545300E-010
1400.6,-0.05,1400.6916,-1.030,+5.67218900E-010
1400.7,-0.05,1400.7881,-0.940,+5.66393000E-010
1400.8,-0.05,1400.8855,-0.860,+5.69269900E-010
1400.9,-0.05,1400.9887,-0.850,+5.68750800E-010
1401,-0.04,1401.0891,-0.860,+5.62595600E-010
1401.1,-0.05,1401.1910,-0.910,+5.64184300E-010
1401.2,-0.05,1401.2879,-0.920,+5.68542000E-010
1401.3,-0.05,1401.3873,-0.820,+5.67278700E-010
1401.4,-0.05,1401.4829,-0.840,+5.67674000E-010
1401.5,-0.05,1401.5811,-0.830,+5.67556100E-010
1401.6,-0.04,1401.6858,-0.970,+5.63128000E-010
1401.7,-0.05,1401.7852,-0.890,+5.61966000E-010
1401.8,-0.04,1401.8854,-0.820,+5.68827400E-010
1401.9,-0.04,1401.9824,-0.800,+5.67360300E-010
1402,-0.05,1402.0863,-0.920,+5.68353300E-010
1402.1,-0.05,1402.1833,-0.940,+5.66618400E-010
1402.2,-0.05,1402.2834,-0.870,+5.63551800E-010
1402.3,-0.05,1402.3866,-0.880,+5.64991600E-010
1402.4,-0.05,1402.4844,-0.830,+5.68671400E-010
1402.5,-0.04,1402.5902,-0.840,+5.68468200E-010
1402.6,-0.04,1402.6898,-0.830,+5.67359700E-010
1402.7,-0.05,1402.7890,-0.800,+5.67358100E-010
1402.8,-0.04,1402.8847,-0.910,+5.68566500E-010
1402.9,-0.04,1402.9837,-0.820,+5.67072500E-010
1403,-0.04,1403.1174,-0.880,+5.67304500E-010
1403.1,-0.04,1403.2172,-0.960,+5.70369000E-010
1403.2,-0.04,1403.3169,-0.860,+5.69975900E-010
1403.3,-0.05,1403.4141,-0.920,+5.70024600E-010
1403.4,-0.04,1403.5154,-0.910,+5.69472100E-010
1403.5,-0.05,1403.6145,-0.790,+5.69680300E-010
1403.6,-0.05,1403.7139,-0.830,+5.70641700E-010
1403.7,-0.04,1403.8156,-0.890,+5.71365100E-010
1403.8,-0.04,1403.9117,-0.910,+5.70970800E-010
1403.9,-0.04,1404.0109,-0.900,+5.70883100E-010
1404,-0.05,1404.1087,-0.900,+5.71028100E-010
1404.1,-0.04,1404.2142,-0.860,+5.71369300E-010
1404.2,-0.05,1404.3108,-0.820,+5.71111000E-010
1404.3,-0.04,1404.4092,-0.830,+5.67835700E-010
1404.4,-0.05,1404.5099,-0.930,+5.68971600E-010
1404.5,-0.04,1404.6087,-0.890,+5.69030200E-010
1404.6,-0.04,1404.7142,-0.850,+5.68748300E-010
1404.7,-0.04,1404.8140,-0.870,+5.70288300E-010
1404.8,-0.04,1404.9163,-1.110,+5.62028300E-010
1404.9,-0.05,1405.0114,-1.260,+5.67503500E-010
1405,-0.04,1405.1112,-0.990,+5.63097900E-010
1405.1,-0.05,1405.2118,-0.930,+5.66141700E-010
1405.2,-0.05,1405.3115,-0.950,+5.58094300E-010
1405.3,-0.04,1405.4129,-1.260,+5.64498300E-010
1405.4,-0.05,1405.5088,-0.980,+5.66986200E-010
1405.5,-0.05,1405.6102,-0.940,+5.67309500E-010
1405.6,-0.04,1405.7100,-0.950,+5.67435500E-010
1405.7,-0.04,1405.8124,-0.960,+5.67212800E-010
1405.8,-0.05,1405.9106,-0.990,+5.67694000E-010
1405.9,-0.04,1406.0071,-1.030,+5.67764400E-010
1406,-0.05,1406.1073,-0.980,+5.67956800E-010
1406.1,-0.05,1406.2037,-0.970,+5.67792800E-010
1406.2,-0.04,1406.3054,-0.880,+5.67312900E-010
1406.3,-0.05,1406.4029,-0.910,+5.67599900E-010
1406.4,-0.04,1406.5055,-0.900,+5.68933000E-010
1406.5,-0.04,1406.6026,-1.000,+5.69440200E-010
1406.6,-0.04,1406.7007,-1.050,+5.68841500E-010
1406.7,-0.04,1406.8042,-0.910,+5.69297500E-010
1406.8,-0.04,1406.9042,-0.920,+5.69340500E-010
1406.9,-0.04,1407.0069,-1.000,+5.68602200E-010
1407,-0.04,1407.1038,-1.010,+5.67783300E-010
1407.1,-0.05,1407.2072,-0.950,+5.67682400E-010
1407.2,-0.05,1407.3094,-1.000,+5.68020800E-010
1407.3,-0.04,1407.4097,-0.990,+5.67708600E-010
1407.4,-0.04,1407.5117,-1.060,+5.69389700E-010
1407.5,-0.04,1407.6060,-1.210,+5.63661300E-010
1407.6,-0.04,1407.7066,-0.990,+5.66122900E-010
1407.7,-0.04,1407.8041,-0.900,+5.63317500E-010
1407.8,-0.04,1407.9074,-0.910,+5.63400700E-010
1407.9,-0.04,1408.0064,-0.930,+5.63809800E-010
1408,-0.04,1408.1027,-0.940,+5.64247400E-010
1408.1,-0.04,1408.2042,-1.220,+5.57151700E-010
1408.2,-0.04,1408.3033,-0.950,+5.50823500E-010
1408.3,-0.04,1408.4070,-0.930,+5.48624800E-010
1408.4,-0.04,1408.5035,-0.910,+5.69806300E-010
1408.5,-0.05,1408.6021,-0.940,+5.41068200E-010
1408.6,-0.05,1408.7000,-0.960,+5.26651900E-010
1408.7,-0.04,1408.7996,-0.970,+5.28641700E-010
1408.8,-0.05,1408.9039,-0.970,+5.26774400E-010
1408.9,-0.05,1409.0027,-0.860,+5.29042400E-010
1409,-0.05,1409.1045,-0.940,+5.25902900E-010
1409.1,-0.04,1409.2013,-0.880,+5.23368500E-010
1409.2,-0.04,1409.3067,-0.980,+5.24558100E-010
1409.3,-0.04,1409.4085,-0.970,+5.24768800E-010
1409.4,-0.04,1409.5071,-1.130,+5.23981900E-010
1409.5,-0.05,1409.6105,-0.980,+5.22046100E-010
1409.6,-0.05,1409.7077,-0.930,+5.25846700E-010
1409.7,-0.05,1409.8082,-0.990,+5.24595400E-010
1409.8,-0.05,1409.9066,-0.980,+5.26628800E-010
1409.9,-0.05,1410.0093,-0.910,+5.19533000E-010
1410,-0.05,1410.1078,-0.840,+5.30919300E-010
1410.1,-0.04,1410.2082,-0.940,+5.16095600E-010
1410.2,-0.04,1410.3057,-0.870,+5.31319200E-010
1410.3,-0.04,1410.4101,-0.940,+5.36491000E-010
1410.4,-0.05,1410.5075,-0.910,+5.58605400E-010
1410.5,-0.04,1410.6077,-0.890,+5.28506700E-010
1410.6,-0.05,1410.7010,-0.900,+5.29143000E-010
1410.7,-0.04,1410.8015,-0.890,+5.65597100E-010
1410.8,-0.05,1410.8998,-0.920,+5.70495600E-010
1410.9,-0.04,1410.9993,-0.940,+5.70765700E-010
1411,-0.05,1411.1013,-1.190,+5.71347500E-010
1411.1,-0.04,1411.1984,-1.020,+5.70814000E-010
1411.2,-0.04,1411.2994,-0.890,+5.69799600E-010
1411.3,-0.05,1411.3985,-0.830,+5.69963100E-010
1411.4,-0.04,1411.5015,-0.970,+5.70138500E-010
1411.5,-0.04,1411.5998,-0.890,+5.70782900E-010
1411.6,-0.04,1411.7007,-0.990,+5.70867900E-010
1411.7,-0.04,1411.8019,-0.940,+5.70309600E-010
1411.8,-0.04,1411.9020,-0.890,+5.69707300E-010
1411.9,-0.05,1412.0052,-0.850,+5.70753600E-010
1412,-0.04,1412.1042,-0.890,+5.70133800E-010
1412.1,-0.04,1412.2030,-0.950,+5.70221800E-010
1412.2,-0.04,1412.2980,-0.960,+5.70872200E-010
1412.3,-0.05,1412.4003,-0.960,+5.70196700E-010
1412.4,-0.04,1412.4980,-0.960,+5.70661300E-010
1412.5,-0.04,1412.6003,-0.880,+5.70340200E-010
1412.6,-0.04,1412.6996,-0.890,+5.70787400E-010
1412.7,-0.04,1412.7959,-0.890,+5.70738300E-010
1412.8,-0.05,1412.8981,-0.870,+5.71113900E-010
1412.9,-0.04,1412.9957,-0.920,+5.71278100E-010
1413,-0.05,1413.0974,-0.950,+5.72326400E-010
1413.1,-0.05,1413.1923,-1.230,+5.71243200E-010
1413.2,-0.04,1413.2907,-0.960,+5.71130000E-010
1413.3,-0.04,1413.3883,-0.960,+5.71261600E-010
1413.4,-0.05,1413.5220,-0.900,+5.71161500E-010
1413.5,-0.04,1413.6250,-0.920,+5.71417200E-010
1413.6,-0.04,1413.7226,-1.230,+5.71406200E-010
1413.7,-0.05,1413.8231,-0.970,+5.71904000E-010
1413.8,-0.04,1413.9230,-0.900,+5.71949700E-010
1413.9,-0.05,1414.0274,-0.880,+5.71515900E-010
1414,-0.05,1414.1268,-1.050,+5.71591900E-010
1414.1,-0.05,1414.2304,-0.990,+5.71571400E-010
1414.2,-0.05,1414.3318,-0.890,+5.71716300E-010
1414.3,-0.04,1414.4264,-0.910,+5.72005900E-010
1414.4,-0.05,1414.5265,-0.850,+5.71533200E-010
1414.5,-0.05,1414.6261,-0.900,+5.71147600E-010
1414.6,-0.04,1414.7285,-0.920,+5.71019200E-010
1414.7,-0.05,1414.8263,-0.910,+5.70932100E-010
1414.8,-0.04,1414.9286,-0.960,+5.71381600E-010
1414.9,-0.05,1415.0263,-0.960,+5.70989600E-010
1415,-0.05,1415.1271,-0.900,+5.70726200E-010
1415.1,-0.04,1415.2277,-0.850,+5.71130900E-010
1415.2,-0.04,1415.3222,-0.900,+5.70942500E-010
1415.3,-0.05,1415.4216,-0.900,+5.71169700E-010
1415.4,-0.05,1415.5180,-0.830,+5.71350000E-010
1415.5,-0.05,1415.6179,-0.900,+5.71259500E-010
1415.6,-0.04,1415.7151,-0.880,+5.70462300E-010
1415.7,-0.04,1415.8156,-0.930,+5.71280700E-010
1415.8,-0.04,1415.9104,-0.910,+5.70789000E-010
1415.9,-0.05,1416.0136,-1.000,+5.70319200E-010
1416,-0.05,1416.1157,-0.920,+5.70603800E-010
1416.1,-0.04,1416.2142,-0.900,+5.70131100E-010
1416.2,-0.04,1416.3150,-0.900,+5.70740700E-010
1416.3,-0.05,1416.4126,-0.850,+5.70552600E-010
1416.4,-0.05,1416.5141,-0.860,+5.70779800E-010
1416.5,-0.04,1416.6140,-0.920,+5.70567900E-010
1416.6,-0.04,1416.7167,-0.990,+5.70815500E-010
1416.7,-0.04,1416.8169,-0.900,+5.70154900E-010
1416.8,-0.04,1416.9133,-0.910,+5.70788300E-010
1416.9,-0.05,1417.0153,-0.860,+5.70550300E-010
1417,-0.05,1417.1140,-0.860,+5.70516700E-010
1417.1,-0.05,1417.2168,-0.870,+5.70058100E-010
1417.2,-0.05,1417.3156,-0.920,+5.69865900E-010
1417.3,-0.05,1417.4154,-0.960,+5.70029900E-010
1417.4,-0.04,1417.5117,-0.950,+5.70475200E-010
1417.5,-0.04,1417.6151,-0.910,+5.70555500E-010
1417.6,-0.04,1417.7173,-0.860,+5.70103700E-010
1417.7,-0.05,1417.8143,-0.890,+5.70238300E-010
1417.8,-0.05,1417.9135,-0.860,+5.71351600E-010
1417.9,-0.05,1418.0073,-0.830,+5.70337100E-010
1418,-0.05,1418.1096,-0.900,+5.72291300E-010
1418.1,-0.05,1418.2092,-0.890,+5.71339500E-010
1418.2,-0.05,1418.3101,-0.960,+5.70219000E-010
1418.3,-0.04,1418.4082,-0.900,+5.71805000E-010
1418.4,-0.05,1418.5083,-1.120,+5.71626400E-010
1418.5,-0.05,1418.6118,-0.850,+5.71751100E-010
1418.6,-0.05,1418.7111,-0.890,+5.71460600E-010
1418.7,-0.05,1418.8136,-0.860,+5.72507100E-010
1418.8,-0.05,1418.9104,-0.980,+5.73317800E-010
1418.9,-0.05,1419.0086,-0.920,+5.73036000E-010
1419,-0.05,1419.1080,-0.800,+5.73937200E-010
1419.1,-0.04,1419.2105,-0.930,+5.73744700E-010
1419.2,-0.04,1419.3140,-0.900,+5.74968100E-010
1419.3,-0.05,1419.4126,-0.900,+5.72600100E-010
1419.4,-0.05,1419.5119,-0.870,+5.73409000E-010
1419.5,-0.04,1419.6103,-0.860,+5.73877700E-010
1419.6,-0.05,1419.7141,-0.840,+5.74152800E-010
1419.7,-0.04,1419.8107,-0.860,+5.72791300E-010
1419.8,-0.04,1419.9119,-0.960,+5.69251900E-010
1419.9,-0.05,1420.0066,-0.980,+5.66454900E-010
1420,-0.04,1420.1067,-0.870,+5.66870800E-010
1420.1,-0.05,1420.2063,-0.930,+5.65691700E-010
1420.2,-0.04,1420.3029,-1.000,+5.66861100E-010
1420.3,-0.05,1420.4059,-0.920,+5.71659900E-010
1420.4,-0.04,1420.5048,-0.920,+5.71764200E-010
1420.5,-0.05,1420.6030,-0.840,+5.72260000E-010
1420.6,-0.05,1420.7067,-0.860,+5.72067100E-010
1420.7,-0.05,1420.8088,-0.880,+5.71849400E-010
1420.8,-0.05,1420.9060,-0.850,+5.71225000E-010
1420.9,-0.04,1421.0070,-0.900,+5.71455300E-010
1421,-0.05,1421.1080,-1.170,+5.71089700E-010
1421.1,-0.05,1421.2096,-0.860,+5.71263400E-010
1421.2,-0.04,1421.3123,-0.800,+5.71366400E-010
1421.3,-0.05,1421.4132,-0.860,+5.70706400E-010
1421.4,-0.05,1421.5091,-0.790,+5.68154300E-010
1421.5,-0.04,1421.6114,-0.850,+5.68545500E-010
1421.6,-0.04,1421.7146,-0.920,+5.68494400E-010
1421.7,-0.05,1421.8129,-0.940,+5.68998300E-010
1421.8,-0.05,1421.9150,-0.910,+5.68509500E-010
1421.9,-0.04,1422.0150,-0.870,+5.68594200E-010
1422,-0.05,1422.1095,-0.960,+5.68872900E-010
1422.1,-0.04,1422.2119,-0.850,+5.69376500E-010
1422.2,-0.04,1422.3143,-0.840,+5.69163900E-010
1422.3,-0.04,1422.4129,-0.770,+5.68992300E-010
1422.4,-0.05,1422.5104,-0.790,+5.68923900E-010
1422.5,-0.04,1422.6082,-0.840,+5.68772000E-010
1422.6,-0.04,1422.7068,-0.820,+5.68897800E-010
1422.7,-0.05,1422.8102,-0.880,+5.69051900E-010
1422.8,-0.05,1422.9112,-1.100,+5.68990200E-010
1422.9,-0.05,1423.0085,-1.150,+5.68629900E-010
1423,-0.04,1423.1088,-0.930,+5.69907900E-010
1423.1,-0.04,1423.2119,-0.850,+5.69913400E-010
1423.2,-0.04,1423.3105,-0.880,+5.69863400E-010
1423.3,-0.05,1423.4121,-0.870,+5.69445600E-010
1423.4,-0.05,1423.5136,-0.880,+5.69517200E-010
1423.5,-0.04,1423.6082,-0.870,+5.68344500E-010
1423.6,-0.04,1423.7082,-0.880,+5.69026700E-010
1423.7,-0.04,1423.8133,-0.910,+5.69476900E-010
1423.8,-0.05,1423.9132,-1.150,+5.69475700E-010
1423.9,-0.04,1424.0128,-0.970,+5.50362800E-010
1424,-0.04,1424.1144,-0.900,+5.63106000E-010
1424.1,-0.04,1424.2113,-0.880,+5.62338800E-010
1424.2,-0.04,1424.3141,-0.800,+5.61787500E-010
1424.3,-0.05,1424.4164,-0.800,+5.54447000E-010
1424.4,-0.04,1424.5126,-0.800,+5.75288600E-010
1424.5,-0.05,1424.6119,-0.830,+5.75233400E-010
1424.6,-0.05,1424.7113,-0.860,+5.76095000E-010
1424.7,-0.04,1424.8074,-0.830,+5.76721000E-010
1424.8,-0.05,1424.9083,-0.870,+5.77201900E-010
1424.9,-0.05,1425.0101,-0.870,+5.77357300E-010
1425,-0.05,1425.1092,-0.840,+5.76937700E-010
1425.1,-0.04,1425.2073,-0.890,+5.76251000E-010
1425.2,-0.05,1425.3105,-0.910,+5.76408500E-010
1425.3,-0.04,1425.4146,-0.830,+5.76927500E-010
1425.4,-0.05,1425.5124,-0.830,+5.76444700E-010
1425.5,-0.05,1425.6139,-0.830,+5.77243600E-010
1425.6,-0.04,1425.7145,-0.810,+5.75717900E-010
1425.7,-0.05,1425.8418,-0.880,+5.76278100E-010
1425.8,-0.04,1425.9451,-0.970,+5.75983100E-010
1425.9,-0.04,1426.0476,-0.810,+5.76864600E-010
1426,-0.05,1426.1467,-0.850,+5.76468400E-010
1426.1,-0.05,1426.2461,-0.840,+5.75867900E-010
1426.2,-0.05,1426.3473,-0.830,+5.76337100E-010
1426.3,-0.05,1426.4463,-0.730,+5.76329000E-010
1426.4,-0.05,1426.5481,-0.840,+5.75239200E-010
1426.5,-0.04,1426.6488,-0.880,+5.75594400E-010
1426.6,-0.04,1426.7452,-0.770,+5.75340100E-010
1426.7,-0.05,1426.8465,-0.800,+5.75135800E-010
1426.8,-0.04,1426.9490,-0.920,+5.75670700E-010
1426.9,-0.04,1427.0450,-0.860,+5.75901100E-010
1427,-0.05,1427.1431,-0.900,+5.74979000E-010
1427.1,-0.05,1427.2429,-0.910,+5.74398800E-010
1427.2,-0.05,1427.3398,-0.910,+5.75311500E-010
1427.3,-0.05,1427.4439,-0.890,+5.75309600E-010
1427.4,-0.05,1427.5450,-0.840,+5.75505100E-010
1427.5,-0.04,1427.6419,-0.820,+5.74926900E-010
1427.6,-0.05,1427.7424,-0.830,+5.74813700E-010
1427.7,-0.04,1427.8435,-0.710,+5.74990600E-010
1427.8,-0.05,1427.9438,-0.840,+5.74889000E-010
1427.9,-0.04,1428.0450,-0.830,+5.74558100E-010
1428,-0.04,1428.1451,-0.800,+5.74355000E-010
1428.1,-0.04,1428.2395,-0.800,+5.74864400E-010
1428.2,-0.05,1428.3398,-0.790,+5.74402900E-010
1428.3,-0.04,1428.4421,-0.780,+5.74648200E-010
1428.4,-0.05,1428.5403,-0.780,+5.74694300E-010
1428.5,-0.05,1428.6414,-0.850,+5.74500100E-010
1428.6,-0.04,1428.7417,-0.900,+5.74711700E-010
1428.7,-0.04,1428.8387,-0.880,+5.74844500E-010
1428.8,-0.04,1428.9412,-0.890,+5.74616700E-010
1428.9,-0.04,1429.0425,-0.890,+5.75029700E-010
1429,-0.04,1429.1395,-0.890,+5.74677600E-010
1429.1,-0.04,1429.2376,-0.870,+5.74765900E-010
1429.2,-0.04,1429.3342,-1.040,+5.74571800E-010
1429.3,-0.05,1429.4317,-0.870,+5.74595000E-010
1429.4,-0.05,1429.5307,-1.120,+5.74415000E-010
1429.5,-0.05,1429.6320,-0.930,+5.74621300E-010
1429.6,-0.04,1429.7289,-0.950,+5.74558000E-010
1429.7,-0.04,1429.8270,-1.110,+5.74647400E-010
1429.8,-0.05,1429.9311,-0.820,+5.74629700E-010
1429.9,-0.05,1430.0294,-0.820,+5.74450500E-010
1430,-0.04,1430.1308,-0.800,+5.74774800E-010
1430.1,-0.04,1430.2317,-0.760,+5.74709300E-010
1430.2,-0.05,1430.3305,-0.860,+5.74947900E-010
1430.3,-0.04,1430.4282,-0.790,+5.73835600E-010
1430.4,-0.04,1430.5292,-0.790,+5.73448800E-010
1430.5,-0.04,1430.6302,-0.740,+5.70428200E-010
1430.6,-0.05,1430.7306,-0.820,+5.72473800E-010
1430.7,-0.05,1430.8242,-0.810,+5.73787700E-010
1430.8,-0.04,1430.9257,-0.810,+5.73708000E-010
1430.9,-0.05,1431.0288,-0.790,+5.73921300E-010
1431,-0.05,1431.1311,-0.930,+5.73599600E-010
1431.1,-0.04,1431.2294,-0.860,+5.73464700E-010
1431.2,-0.05,1431.3270,-0.920,+5.73792600E-010
1431.3,-0.04,1431.4282,-0.830,+5.72788900E-010
1431.4,-0.04,1431.5295,-1.130,+5.73087600E-010
1431.5,-0.04,1431.6291,-0.910,+5.73205700E-010
1431.6,-0.05,1431.7259,-0.950,+5.73092500E-010
1431.7,-0.05,1431.8244,-0.900,+5.72598100E-010
1431.8,-0.05,1431.9246,-1.120,+5.72639400E-010
1431.9,-0.05,1432.0270,-0.870,+5.72823300E-010
1432,-0.04,1432.1258,-0.830,+5.72679900E-010
1432.1,-0.04,1432.2284,-0.830,+5.72318100E-010
1432.2,-0.05,1432.3269,-0.810,+5.72213100E-010
1432.3,-0.04,1432.4260,-0.810,+5.72608000E-010
1432.4,-0.05,1432.5221,-0.870,+5.72565600E-010
1432.5,-0.04,1432.6235,-0.860,+5.72233000E-010
1432.6,-0.05,1432.7246,-0.820,+5.72412700E-010
1432.7,-0.05,1432.8241,-0.770,+5.72063000E-010
1432.8,-0.05,1432.9259,-0.820,+5.71098400E-010
1432.9,-0.04,1433.0241,-0.820,+5.72078600E-010
1433,-0.04,1433.1267,-0.870,+5.70694700E-010
1433.1,-0.04,1433.2296,-0.800,+5.69849300E-010
1433.2,-0.04,1433.3306,-0.900,+5.69987100E-010
1433.3,-0.05,1433.4276,-0.880,+5.69859900E-010
1433.4,-0.05,1433.5312,-0.940,+5.70072000E-010
1433.5,-0.04,1433.6342,-0.890,+5.69411300E-010
1433.6,-0.05,1433.7337,-0.860,+5.70335700E-010
1433.7,-0.04,1433.8282,-0.940,+5.71488100E-010
1433.8,-0.04,1433.9264,-0.900,+5.71376800E-010
1433.9,-0.05,1434.0273,-1.100,+5.71638200E-010
1434,-0.04,1434.1269,-1.100,+5.72031900E-010
1434.1,-0.04,1434.2281,-0.880,+5.71582300E-010
1434.2,-0.05,1434.3230,-0.920,+5.72062100E-010
1434.3,-0.04,1434.4205,-0.850,+5.71585300E-010
1434.4,-0.04,1434.5237,-1.130,+5.72064100E-010
1434.5,-0.04,1434.6248,-0.930,+5.71573300E-010
1434.6,-0.04,1434.7234,-0.930,+5.71774100E-010
1434.7,-0.04,1434.8225,-0.900,+5.71307100E-010
1434.8,-0.05,1434.9205,-1.150,+5.71639400E-010
1434.9,-0.05,1435.0201,-1.100,+5.72025500E-010
1435,-0.04,1435.1229,-0.890,+5.71844000E-010
1435.1,-0.04,1435.2206,-0.880,+5.71930600E-010
1435.2,-0.05,1435.3208,-0.870,+5.71939700E-010
1435.3,-0.04,1435.4193,-0.930,+5.71776300E-010
1435.4,-0.04,1435.5206,-0.810,+5.71546300E-010
1435.5,-0.05,1435.6200,-0.880,+5.71349600E-010
1435.6,-0.05,1435.7217,-0.830,+5.71462200E-010
1435.7,-0.04,1435.8227,-0.860,+5.71985100E-010
1435.8,-0.05,1435.9222,-0.840,+5.72233400E-010
1435.9,-0.05,1436.0180,-0.850,+5.72202600E-010
1436,-0.05,1436.1170,-0.930,+5.71540400E-010
1436.1,-0.05,1436.2160,-0.880,+5.71921500E-010
1436.2,-0.05,1436.3155,-0.860,+5.71908100E-010
1436.3,-0.05,1436.4134,-0.860,+5.71687000E-010
1436.4,-0.05,1436.5103,-0.840,+5.71397900E-010
1436.5,-0.05,1436.6109,-1.130,+5.71566500E-010
1436.6,-0.05,1436.7115,-0.920,+5.71122500E-010
1436.7,-0.05,1436.8131,-0.910,+5.71301900E-010
1436.8,-0.04,1436.9383,-0.880,+5.70748400E-010
1436.9,-0.05,1437.0370,-0.860,+5.71032900E-010
1437,-0.05,1437.1387,-0.840,+5.70675200E-010
1437.1,-0.04,1437.2387,-0.830,+5.70952100E-010
1437.2,-0.04,1437.3348,-0.880,+5.70606300E-010
1437.3,-0.04,1437.4344,-0.900,+5.70412200E-010
1437.4,-0.04,1437.5328,-0.930,+5.70203200E-010
1437.5,-0.05,1437.6342,-0.920,+5.70176700E-010
1437.6,-0.05,1437.7360,-0.890,+5.70067600E-010
1437.7,-0.05,1437.8336,-0.840,+5.70302000E-010
1437.8,-0.05,1437.9350,-0.920,+5.69838500E-010
1437.9,-0.04,1438.0349,-0.820,+5.69394500E-010
1438,-0.04,1438.1368,-0.820,+5.69236100E-010
1438.1,-0.05,1438.2361,-0.830,+5.69212600E-010
1438.2,-0.05,1438.3367,-0.850,+5.69235200E-010
1438.3,-0.05,1438.4370,-0.820,+5.69315800E-010
1438.4,-0.05,1438.5348,-0.880,+5.69672400E-010
1438.5,-0.05,1438.6316,-0.870,+5.69658400E-010
1438.6,-0.05,1438.7330,-0.820,+5.69086600E-010
1438.7,-0.04,1438.8324,-0.870,+5.69410900E-010
1438.8,-0.04,1438.9314,-0.890,+5.69479700E-010
1438.9,-0.05,1439.0296,-0.930,+5.69000000E-010
1439,-0.04,1439.1277,-1.140,+5.69701100E-010
1439.1,-0.05,1439.2290,-0.940,+5.69582100E-010
1439.2,-0.04,1439.3302,-0.920,+5.69323500E-010
1439.3,-0.04,1439.4297,-0.920,+5.70010700E-010
1439.4,-0.05,1439.5225,-0.910,+5.69737100E-010
1439.5,-0.05,1439.6236,-0.900,+5.69274500E-010
1439.6,-0.05,1439.7267,-1.170,+5.69321800E-010
1439.7,-0.05,1439.8263,-1.110,+5.69635600E-010
1439.8,-0.05,1439.9229,-0.850,+5.69597000E-010
1439.9,-0.04,1440.0223,-0.890,+5.69610000E-010
1440,-0.05,1440.1225,-0.820,+5.69396500E-010
1440.1,-0.05,1440.2261,-1.140,+5.69378800E-010
1440.2,-0.04,1440.3294,-0.860,+5.69816400E-010
1440.3,-0.04,1440.4295,-0.950,+5.69671000E-010
1440.4,-0.05,1440.5244,-0.890,+5.69059800E-010
1440.5,-0.04,1440.6241,-0.910,+5.69260100E-010
1440.6,-0.05,1440.7263,-1.140,+5.68147800E-010
1440.7,-0.04,1440.8267,-1.110,+5.69990000E-010
1440.8,-0.04,1440.9259,-0.920,+5.69967100E-010
1440.9,-0.04,1441.0242,-0.860,+5.69718600E-010
1441,-0.05,1441.1243,-0.910,+5.69111900E-010
1441.1,-0.05,1441.2233,-0.820,+5.69600600E-010
1441.2,-0.04,1441.3244,-0.910,+5.69072300E-010
1441.3,-0.05,1441.4250,-0.920,+5.68839100E-010
1441.4,-0.04,1441.5242,-0.950,+5.69497300E-010
1441.5,-0.05,1441.6257,-0.920,+5.69471200E-010
1441.6,-0.05,1441.7274,-0.950,+5.69274400E-010
1441.7,-0.05,1441.8276,-1.170,+5.69328600E-010
1441.8,-0.04,1441.9234,-0.900,+5.69008400E-010
1441.9,-0.05,1442.0233,-0.880,+5.69356500E-010
1442,-0.04,1442.1223,-0.830,+5.69231700E-010
1442.1,-0.05,1442.2243,-0.880,+5.68712600E-010
1442.2,-0.05,1442.3275,-0.870,+5.68678600E-010
1442.3,-0.05,1442.4291,-0.930,+5.68566100E-010
1442.4,-0.05,1442.5303,-1.150,+5.68501800E-010
1442.5,-0.05,1442.6275,-0.910,+5.68555500E-010
1442.6,-0.05,1442.7250,-0.800,+5.68122700E-010
1442.7,-0.04,1442.8269,-0.910,+5.68220200E-010
1442.8,-0.05,1442.9269,-0.910,+5.68053000E-010
1442.9,-0.04,1443.0249,-0.830,+5.67623700E-010
1443,-0.05,1443.1226,-0.850,+5.67666500E-010
1443.1,-0.04,1443.2227,-0.790,+5.67898600E-010
1443.2,-0.04,1443.3229,-0.890,+5.67555000E-010
1443.3,-0.04,1443.4200,-0.860,+5.67669200E-010
1443.4,-0.05,1443.5206,-0.840,+5.67323600E-010
1443.5,-0.05,1443.6178,-0.800,+5.67795900E-010
1443.6,-0.05,1443.7193,-0.810,+5.66947800E-010
1443.7,-0.04,1443.8219,-0.840,+5.66958200E-010
1443.8,-0.04,1443.9235,-0.840,+5.66756000E-010
1443.9,-0.05,1444.0228,-0.860,+5.66834600E-010
1444,-0.05,1444.1166,-0.890,+5.66850200E-010
1444.1,-0.05,1444.2160,-0.850,+5.66842500E-010
1444.2,-0.05,1444.3190,-0.850,+5.66763000E-010
1444.3,-0.05,1444.4192,-0.850,+5.66596100E-010
1444.4,-0.05,1444.5199,-0.810,+5.66613900E-010
1444.5,-0.04,1444.6200,-0.830,+5.66840000E-010
1444.6,-0.05,1444.7193,-0.900,+5.66722100E-010
1444.7,-0.05,1444.8147,-0.890,+5.66541300E-010
1444.8,-0.05,1444.9151,-0.910,+5.66539900E-010
1444.9,-0.04,1445.0175,-1.100,+5.66467000E-010
1445,-0.05,1445.1144,-0.930,+5.66547600E-010
1445.1,-0.04,1445.2126,-0.850,+5.66775900E-010
1445.2,-0.05,1445.3145,-0.840,+5.66750000E-010
1445.3,-0.05,1445.4159,-0.890,+5.66313900E-010
1445.4,-0.05,1445.5134,-0.840,+5.66560100E-010
1445.5,-0.04,1445.6113,-0.900,+5.66729700E-010
1445.6,-0.05,1445.7119,-0.820,+5.66593700E-010
1445.7,-0.04,1445.8136,-0.800,+5.66330700E-010
1445.8,-0.05,1445.9145,-0.790,+5.65929900E-010
1445.9,-0.04,1446.0146,-0.800,+5.66464500E-010
1446,-0.05,1446.1138,-0.820,+5.66243200E-010
1446.1,-0.04,1446.2092,-0.810,+5.66741300E-010
1446.2,-0.05,1446.3099,-0.820,+5.65981600E-010
1446.3,-0.04,1446.4109,-0.820,+5.66462800E-010
1446.4,-0.04,1446.5088,-0.840,+5.66216600E-010
1446.5,-0.04,1446.6065,-0.960,+5.66247100E-010
1446.6,-0.04,1446.7056,-1.110,+5.66584100E-010
1446.7,-0.04,1446.8084,-0.920,+5.66245100E-010
1446.8,-0.05,1446.9078,-1.110,+5.66356900E-010
1446.9,-0.04,1447.0078,-0.910,+5.66363700E-010
1447,-0.04,1447.1089,-1.080,+5.66042000E-010
1447.1,-0.04,1447.2072,-0.920,+5.65910300E-010
1447.2,-0.05,1447.3087,-0.880,+5.66539600E-010
1447.3,-0.04,1447.4100,-0.910,+5.65905000E-010
1447.4,-0.05,1447.5096,-0.860,+5.65854300E-010
1447.5,-0.04,1447.6080,-0.800,+5.66491100E-010
1447.6,-0.05,1447.6999,-0.830,+5.66652800E-010
1447.7,-0.05,1447.8006,-0.760,+5.65939500E-010
1447.8,-0.05,1447.9006,-0.840,+5.65960400E-010
1447.9,-0.04,1447.9997,-0.850,+5.65728300E-010
1448,-0.05,1448.1007,-0.800,+5.66202400E-010
1448.1,-0.05,1448.1987,-0.900,+5.65950300E-010
1448.2,-0.05,1448.3011,-0.870,+5.65678700E-010
1448.3,-0.05,1448.3973,-0.940,+5.65694000E-010
1448.4,-0.05,1448.4974,-0.930,+5.65430100E-010
1448.5,-0.05,1448.5986,-0.870,+5.65167300E-010
1448.6,-0.04,1448.6971,-0.860,+5.64841700E-010
1448.7,-0.04,1448.7972,-0.840,+5.65310900E-010
1448.8,-0.05,1448.8981,-0.820,+5.65447400E-010
1448.9,-0.04,1448.9993,-0.840,+5.65148500E-010
1449,-0.04,1449.0965,-0.810,+5.64394900E-010
1449.1,-0.05,1449.1950,-0.780,+5.64144100E-010
1449.2,-0.04,1449.2945,-0.800,+5.64328400E-010
1449.3,-0.04,1449.3958,-0.830,+5.64363600E-010
1449.4,-0.05,1449.4976,-0.830,+5.64122600E-010
1449.5,-0.04,1449.5974,-0.810,+5.64126900E-010
1449.6,-0.04,1449.6953,-0.780,+5.63883600E-010
1449.7,-0.04,1449.7912,-0.910,+5.64276800E-010
1449.8,-0.04,1449.8931,-0.900,+5.63478600E-010
1449.9,-0.05,1449.9942,-0.930,+5.63608500E-010
1450,-0.04,1450.0931,-0.870,+5.63575700E-010
1450.1,-0.05,1450.1910,-0.910,+5.59265100E-010
1450.2,-0.04,1450.2914,-0.900,+5.60877300E-010
1450.3,-0.05,1450.3945,-0.890,+5.61522800E-010
1450.4,-0.05,1450.4963,-0.900,+5.63255600E-010
1450.5,-0.05,1450.6013,-1.190,+5.63663200E-010
1450.6,-0.05,1450.6997,-0.890,+5.63542800E-010
1450.7,-0.04,1450.7992,-0.850,+5.63609400E-010
1450.8,-0.05,1450.8998,-0.840,+5.63983200E-010
1450.9,-0.05,1451.0008,-0.870,+5.63384500E-010
1451,-0.05,1451.1011,-0.800,+5.63955000E-010
1451.1,-0.04,1451.1997,-0.790,+5.63809000E-010
1451.2,-0.04,1451.2993,-0.810,+5.64095700E-010
1451.3,-0.04,1451.4003,-0.860,+5.63731700E-010
1451.4,-0.04,1451.5031,-0.760,+5.64486200E-010
1451.5,-0.04,1451.6049,-0.790,+5.64468000E-010
1451.6,-0.04,1451.7049,-0.810,+5.64231400E-010
1451.7,-0.04,1451.8054,-0.840,+5.64389600E-010
1451.8,-0.05,1451.9057,-0.790,+5.64188100E-010
1451.9,-0.04,1452.0050,-0.850,+5.64720700E-010
1452,-0.04,1452.1049,-0.790,+5.64557500E-010
1452.1,-0.04,1452.2041,-0.900,+5.64274300E-010
1452.2,-0.04,1452.3013,-0.890,+5.64011400E-010
1452.3,-0.04,1452.4041,-1.090,+5.63877100E-010
1452.4,-0.05,1452.5031,-0.910,+5.64602100E-010
1452.5,-0.04,1452.6029,-0.790,+5.64049000E-010
1452.6,-0.05,1452.7006,-0.820,+5.64169800E-010
1452.7,-0.04,1452.7997,-0.810,+5.63960100E-010
1452.8,-0.04,1452.9004,-0.790,+5.63835400E-010
1452.9,-0.04,1452.9997,-0.820,+5.63547200E-010
1453,-0.04,1453.0991,-0.800,+5.63703000E-010
1453.1,-0.04,1453.1976,-0.830,+5.63433900E-010
1453.2,-0.04,1453.3003,-0.820,+5.63326200E-010
1453.3,-0.05,1453.4025,-0.840,+5.63642500E-010
1453.4,-0.04,1453.5045,-0.840,+5.63595300E-010
1453.5,-0.04,1453.6067,-0.870,+5.63310300E-010
1453.6,-0.05,1453.7032,-0.930,+5.63542300E-010
1453.7,-0.05,1453.8016,-0.900,+5.63019700E-010
1453.8,-0.05,1453.9033,-0.920,+5.63228300E-010
1453.9,-0.04,1454.0038,-0.900,+5.63149200E-010
1454,-0.04,1454.1025,-0.830,+5.62578100E-010
1454.1,-0.04,1454.2042,-0.840,+5.63073500E-010
1454.2,-0.04,1454.3030,-0.790,+5.62904600E-010
1454.3,-0.05,1454.4041,-0.840,+5.62528900E-010
1454.4,-0.04,1454.5032,-0.790,+5.62679400E-010
1454.5,-0.05,1454.6039,-0.780,+5.62715300E-010
1454.6,-0.05,1454.7016,-0.850,+5.62943100E-010
1454.7,-0.05,1454.7985,-1.050,+5.62357400E-010
1454.8,-0.04,1454.8985,-0.890,+5.62032800E-010
1454.9,-0.04,1454.9993,-0.890,+5.62467500E-010
1455,-0.05,1455.1037,-1.080,+5.62122700E-010
1455.1,-0.05,1455.2030,-0.860,+5.62183200E-010
1455.2,-0.05,1455.3001,-0.780,+5.62803200E-010
1455.3,-0.05,1455.3990,-0.800,+5.62268700E-010
1455.4,-0.04,1455.4984,-0.790,+5.62422300E-010
1455.5,-0.05,1455.5997,-0.770,+5.62131500E-010
1455.6,-0.04,1455.6998,-0.810,+5.62067800E-010
1455.7,-0.05,1455.7982,-0.820,+5.62695300E-010
1455.8,-0.05,1455.8985,-0.870,+5.61717700E-010
1455.9,-0.04,1455.9983,-1.130,+5.62455400E-010
1456,-0.05,1456.1026,-0.850,+5.61911400E-010
1456.1,-0.04,1456.2028,-1.080,+5.62100300E-010
1456.2,-0.04,1456.3011,-0.860,+5.62489300E-010
1456.3,-0.04,1456.4006,-0.830,+5.62628400E-010
1456.4,-0.04,1456.5040,-0.910,+5.62779000E-010
1456.5,-0.04,1456.6028,-0.790,+5.62510900E-010
1456.6,-0.04,1456.7025,-0.800,+5.62392200E-010
1456.7,-0.05,1456.8004,-0.800,+5.62575800E-010
1456.8,-0.04,1456.8989,-0.830,+5.62680800E-010
1456.9,-0.04,1457.0054,-0.780,+5.62662900E-010
1457,-0.04,1457.1061,-0.810,+5.62282300E-010
1457.1,-0.04,1457.2036,-0.910,+5.62972600E-010
1457.2,-0.04,1457.3011,-0.870,+5.62779700E-010
1457.3,-0.04,1457.4031,-0.910,+5.62816900E-010
1457.4,-0.04,1457.5043,-0.880,+5.62625100E-010
1457.5,-0.04,1457.6026,-0.780,+5.62511700E-010
1457.6,-0.04,1457.7021,-0.830,+5.63106600E-010
1457.7,-0.04,1457.8014,-0.800,+5.62669900E-010
1457.8,-0.04,1457.9043,-0.820,+5.62538400E-010
1457.9,-0.04,1458.0064,-0.800,+5.62768600E-010
1458,-0.04,1458.1080,-0.780,+5.62785600E-010
1458.1,-0.04,1458.2066,-0.800,+5.62419600E-010
1458.2,-0.05,1458.3056,-0.820,+5.63093900E-010
1458.3,-0.05,1458.4059,-0.890,+5.62476700E-010
1458.4,-0.04,1458.5095,-0.860,+5.62282500E-010
1458.5,-0.04,1458.6108,-0.890,+5.62477300E-010
1458.6,-0.05,1458.7081,-0.850,+5.62621400E-010
1458.7,-0.04,1458.8081,-0.810,+5.62303100E-010
1458.8,-0.04,1458.9056,-0.780,+5.62733200E-010
1458.9,-0.04,1459.0057,-0.730,+5.62614300E-010
1459,-0.04,1459.1065,-0.800,+5.62680900E-010
1459.1,-0.05,1459.2060,-0.830,+5.62435900E-010
1459.2,-0.04,1459.3022,-0.910,+5.62131700E-010
1459.3,-0.05,1459.3990,-0.820,+5.62224500E-010
1459.4,-0.04,1459.4998,-0.830,+5.61995600E-010
1459.5,-0.05,1459.6005,-0.810,+5.61602400E-010
1459.6,-0.04,1459.7028,-0.820,+5.61336400E-010
1459.7,-0.05,1459.7987,-0.760,+5.61571300E-010
1459.8,-0.05,1459.8961,-0.830,+5.61679100E-010
1459.9,-0.04,1459.9963,-0.880,+5.62156400E-010
1460,-0.05,1460.0970,-1.060,+5.61632100E-010
1460.1,-0.04,1460.1961,-0.810,+5.61985800E-010
1460.2,-0.04,1460.2960,-0.800,+5.61530900E-010
1460.3,-0.04,1460.3940,-0.780,+5.61317200E-010
1460.4,-0.04,1460.4946,-0.800,+5.61379800E-010
1460.5,-0.04,1460.6032,-0.820,+5.61366200E-010
1460.6,-0.04,1460.7029,-0.750,+5.61828000E-010
1460.7,-0.05,1460.8022,-0.760,+5.61149600E-010
1460.8,-0.04,1460.9018,-0.830,+5.61774300E-010
1460.9,-0.04,1461.0011,-0.900,+5.61737400E-010
1461,-0.05,1461.1009,-1.010,+5.60993500E-010
1461.1,-0.04,1461.1984,-0.800,+5.60140400E-010
1461.2,-0.04,1461.2975,-0.750,+5.60322700E-010
1461.3,-0.04,1461.3983,-0.740,+5.61479800E-010
1461.4,-0.04,1461.4978,-0.680,+5.61940400E-010
1461.5,-0.04,1461.5973,-0.750,+5.61487500E-010
1461.6,-0.04,1461.6955,-0.850,+5.61158600E-010
1461.7,-0.04,1461.7926,-0.880,+5.61446700E-010
1461.8,-0.04,1461.8909,-0.780,+5.61825800E-010
1461.9,-0.04,1461.9900,-0.780,+5.61346400E-010
1462,-0.04,1462.0906,-0.780,+5.61446100E-010
1462.1,-0.05,1462.1932,-0.740,+5.61117300E-010
1462.2,-0.04,1462.2914,-0.790,+5.61481800E-010
1462.3,-0.05,1462.3897,-0.850,+5.61012100E-010
1462.4,-0.05,1462.4902,-0.940,+5.61211400E-010
1462.5,-0.05,1462.5919,-0.890,+5.62005800E-010
1462.6,-0.05,1462.6931,-0.840,+5.61342400E-010
1462.7,-0.05,1462.7943,-0.810,+5.61805400E-010
1462.8,-0.05,1462.8941,-0.790,+5.61446700E-010
1462.9,-0.05,1462.9936,-0.780,+5.61706400E-010
1463,-0.05,1463.0979,-0.790,+5.61683600E-010
1463.1,-0.05,1463.1989,-0.760,+5.62187900E-010
1463.2,-0.05,1463.2963,-0.830,+5.61817600E-010
1463.3,-0.05,1463.3931,-0.900,+5.61610500E-010
1463.4,-0.05,1463.4930,-0.820,+5.61606700E-010
1463.5,-0.05,1463.5935,-0.810,+5.61535900E-010
1463.6,-0.05,1463.6930,-0.790,+5.61453700E-010
1463.7,-0.05,1463.7914,-0.770,+5.62155000E-010
1463.8,-0.05,1463.8942,-0.770,+5.61691600E-010
1463.9,-0.05,1463.9943,-0.790,+5.61958800E-010
1464,-0.05,1464.0937,-0.870,+5.61323600E-010
1464.1,-0.05,1464.1916,-0.840,+5.61840000E-010
1464.2,-0.04,1464.2908,-0.890,+5.61266700E-010
1464.3,-0.04,1464.3875,-0.740,+5.61758500E-010
1464.4,-0.05,1464.4871,-0.780,+5.61183200E-010
1464.5,-0.05,1464.5890,-0.820,+5.61383800E-010
1464.6,-0.04,1464.6902,-0.840,+5.61104900E-010
1464.7,-0.05,1464.7907,-0.830,+5.61012500E-010
1464.8,-0.05,1464.8891,-0.830,+5.61216200E-010
1464.9,-0.04,1464.9898,-0.790,+5.61151000E-010
1465,-0.05,1465.0927,-0.840,+5.60970700E-010
1465.1,-0.04,1465.1949,-0.740,+5.61057800E-010
1465.2,-0.04,1465.2947,-0.740,+5.60795100E-010
1465.3,-0.04,1465.3921,-0.780,+5.60682300E-010
1465.4,-0.05,1465.4893,-0.890,+5.60232400E-010
1465.5,-0.04,1465.5936,-0.900,+5.60202400E-010
1465.6,-0.05,1465.6928,-0.850,+5.60211200E-010
1465.7,-0.05,1465.7904,-0.810,+5.60255000E-010
1465.8,-0.05,1465.8863,-0.850,+5.60064300E-010
1465.9,-0.05,1465.9855,-0.820,+5.59551300E-010
1466,-0.05,1466.0859,-0.860,+5.59721800E-010
1466.1,-0.05,1466.1844,-0.800,+5.59915800E-010
1466.2,-0.05,1466.2832,-0.770,+5.59995600E-010
1466.3,-0.05,1466.3809,-0.720,+5.60106900E-010
1466.4,-0.04,1466.4798,-0.790,+5.60147700E-010
1466.5,-0.04,1466.5798,-0.780,+5.60184100E-010
1466.6,-0.04,1466.7095,-0.880,+5.60261700E-010
1466.7,-0.04,1466.8114,-0.850,+5.60300300E-010
1466.8,-0.04,1466.9095,-0.810,+5.60163500E-010
1466.9,-0.04,1467.0080,-0.810,+5.59761600E-010
1467,-0.04,1467.1104,-0.750,+5.59089300E-010
1467.1,-0.04,1467.2153,-0.730,+5.60168300E-010
1467.2,-0.04,1467.3152,-0.800,+5.60026200E-010
1467.3,-0.04,1467.4136,-0.740,+5.60298300E-010
1467.4,-0.04,1467.5128,-0.840,+5.60722300E-010
1467.5,-0.04,1467.6146,-0.830,+5.60283400E-010
1467.6,-0.04,1467.7138,-0.820,+5.60287200E-010
1467.7,-0.04,1467.8107,-0.770,+5.60303500E-010
1467.8,-0.04,1467.9082,-0.810,+5.60208000E-010
1467.9,-0.04,1468.0062,-0.840,+5.60312000E-010
1468,-0.05,1468.1071,-1.130,+5.60542900E-010
1468.1,-0.04,1468.2054,-0.840,+5.59669800E-010
1468.2,-0.04,1468.3036,-0.750,+5.59786400E-010
1468.3,-0.05,1468.4002,-0.790,+5.59750000E-010
1468.4,-0.04,1468.4993,-0.900,+5.60203600E-010
1468.5,-0.04,1468.5988,-0.890,+5.59964400E-010
1468.6,-0.05,1468.6959,-0.790,+5.59983800E-010
1468.7,-0.04,1468.7945,-0.770,+5.60023500E-010
1468.8,-0.05,1468.8947,-0.820,+5.60242600E-010
1468.9,-0.05,1468.9914,-0.910,+5.60231400E-010
1469,-0.05,1469.0921,-0.800,+5.60204500E-010
1469.1,-0.04,1469.1932,-0.840,+5.59215400E-010
1469.2,-0.04,1469.2911,-0.700,+5.59375400E-010
1469.3,-0.05,1469.3900,-0.810,+5.59746500E-010
1469.4,-0.04,1469.4895,-0.850,+5.59681500E-010
1469.5,-0.04,1469.5902,-0.850,+5.59547100E-010
1469.6,-0.05,1469.6943,-0.860,+5.59195700E-010
1469.7,-0.04,1469.7956,-0.890,+5.59361000E-010
1469.8,-0.05,1469.8941,-0.770,+5.59514700E-010
1469.9,-0.05,1469.9892,-0.830,+5.59743200E-010
1470,-0.04,1470.0887,-0.810,+5.59562100E-010
