ATTENUATION,T100 POWER,T100 WAVELENGTH,PM WAVELENGTH,POWER METER POWER
0.66,-0.01,1465,0,-0.779098
0.76,-0.01,1465,0,-0.868101
0.86,-0.01,1465,0,-0.963858
0.96,-0.01,1465,0,-1.0563
1.06,-0.01,1465,0,-1.15314
1.16,-0.01,1465,0,-1.25338
1.26,-0.01,1465,0,-1.3507
1.36,-0.01,1465,0,-1.45018
1.46,-0.01,1465,0,-1.54325
1.56,-0.01,1465,0,-1.6453
1.66,-0.01,1465,0,-1.74684
1.76,-0.01,1465,0,-1.83982
1.86,-0.01,1465,0,-1.94534
1.96,-0.01,1465,0,-2.04285
2.06,-0.01,1465,0,-2.14523
2.16,-0.01,1465,0,-2.24923
2.26,-0.01,1465,0,-2.34161
2.36,-0.01,1465,0,-2.4422
2.46,-0.01,1465,0,-2.54087
2.56,-0.01,1465,0,-2.63341
2.66,-0.01,1465,0,-2.72907
2.76,-0.01,1465,0,-2.82696
2.86,-0.01,1465,0,-2.93029
2.96,-0.01,1465,0,-3.03633
3.06,-0.01,1465,0,-3.13357
3.16,-0.01,1465,0,-3.22047
3.26,-0.01,1465,0,-3.32893
3.36,-0.01,1465,0,-3.44108
3.46,-0.01,1465,0,-3.53116
3.56,-0.01,1465,0,-3.62749
3.66,-0.01,1465,0,-3.7161
3.76,-0.01,1465,0,-3.83393
3.86,-0.01,1465,0,-3.93523
3.96,-0.01,1465,0,-4.03416
4.06,-0.01,1465,0,-4.12866
4.16,-0.01,1465,0,-4.20517
4.26,-0.01,1465,0,-4.31129
4.36,-0.01,1465,0,-4.41945
4.46,-0.01,1465,0,-4.49891
4.56,-0.01,1465,0,-4.61674
4.66,-0.01,1465,0,-4.70245
4.76,-0.01,1465,0,-4.81922
4.86,-0.01,1465,0,-4.90584
4.96,-0.01,1465,0,-5.01262
5.06,-0.01,1465,0,-5.11131
5.16,-0.01,1465,0,-5.19205
5.26,-0.01,1465,0,-5.31406
5.36,-0.01,1465,0,-5.40918
5.46,-0.01,1465,0,-5.49558
5.56,-0.01,1465,0,-5.61726
5.66,-0.01,1465,0,-5.70698
5.76,-0.01,1465,0,-5.79145
5.86,-0.01,1465,0,-5.91172
5.96,-0.01,1465,0,-6.00562
6.06,-0.01,1465,0,-6.10313
6.16,-0.01,1465,0,-6.19901
6.26,-0.01,1465,0,-6.29295
6.36,-0.01,1465,0,-6.3931
6.46,-0.01,1465,0,-6.49626
6.56,-0.01,1465,0,-6.59382
6.66,-0.01,1465,0,-6.66511
6.76,-0.01,1465,0,-6.77076
6.86,-0.01,1465,0,-6.87658
6.96,-0.01,1465,0,-6.97141
7.06,-0.01,1465,0,-7.05787
7.16,-0.01,1465,0,-7.16529
7.26,-0.01,1465,0,-7.27883
7.36,-0.01,1465,0,-7.35065
7.46,-0.01,1465,0,-7.46541
7.56,-0.01,1465,0,-7.56412
7.66,-0.01,1465,0,-7.65744
7.76,-0.01,1465,0,-7.77516
7.86,-0.01,1465,0,-7.8506
7.96,-0.01,1465,0,-7.96739
8.06,-0.01,1465,0,-8.04337
8.16,-0.01,1465,0,-8.16638
8.26,-0.01,1465,0,-8.29461
8.36,-0.01,1465,0,-8.37375
8.46,-0.01,1465,0,-8.44451
8.56,-0.01,1465,0,-8.56614
8.66,-0.01,1465,0,-8.6397
8.76,-0.01,1465,0,-8.76633
8.86,-0.01,1465,0,-8.83945
8.96,-0.01,1465,0,-8.96047
9.06,-0.01,1465,0,-9.03332
9.16,-0.01,1465,0,-9.14163
9.26,-0.01,1465,0,-9.23702
9.36,-0.01,1465,0,-9.36005
9.46,-0.01,1465,0,-9.43706
9.56,-0.01,1465,0,-9.54236
9.66,-0.01,1465,0,-9.63124
9.76,-0.01,1465,0,-9.75092
9.86,-0.01,1465,0,-9.83281
9.96,-0.01,1465,0,-9.93874
10.06,-0.01,1465,0,-10.0379
10.16,-0.01,1465,0,-10.1621
10.26,-0.01,1465,0,-10.2404
10.36,-0.01,1465,0,-10.3256
10.46,-0.01,1465,0,-10.4556
10.56,-0.01,1465,0,-10.5399
10.66,-0.01,1465,0,-10.6431
10.76,-0.01,1465,0,-10.7403
10.86,-0.01,1465,0,-10.8683
10.96,-0.01,1465,0,-10.9561
11.06,-0.01,1465,0,-11.0367
11.16,-0.01,1465,0,-11.1699
11.26,-0.01,1465,0,-11.2572
11.36,-0.01,1465,0,-11.3419
11.46,-0.01,1465,0,-11.4934
11.56,-0.01,1465,0,-11.5844
11.66,-0.01,1465,0,-11.6818
11.76,-0.01,1465,0,-11.7571
11.86,-0.01,1465,0,-11.8391
11.96,-0.01,1465,0,-12.0024
12.06,-0.01,1465,0,-12.0909
12.16,-0.01,1465,0,-12.1867
12.26,-0.01,1465,0,-12.2538
12.36,-0.01,1465,0,-12.404
12.46,-0.01,1465,0,-12.5033
12.56,-0.01,1465,0,-12.5931
12.66,-0.01,1465,0,-12.6829
12.76,-0.01,1465,0,-12.7518
12.86,-0.01,1465,0,-12.8993
12.96,-0.01,1465,0,-12.9968
13.06,-0.01,1465,0,-13.0898
13.16,-0.01,1465,0,-13.1766
13.26,-0.01,1465,0,-13.2461
13.36,-0.01,1465,0,-13.3943
13.46,-0.01,1465,0,-13.4973
13.56,-0.01,1465,0,-13.585
13.66,-0.01,1465,0,-13.6559
13.76,-0.01,1465,0,-13.8072
13.86,-0.01,1465,0,-13.8925
13.96,-0.01,1465,0,-13.9887
14.06,-0.01,1465,0,-14.0604
14.16,-0.01,1465,0,-14.2004
14.26,-0.01,1465,0,-14.3039
14.36,-0.01,1465,0,-14.3992
14.46,-0.01,1465,0,-14.4749
14.56,-0.01,1465,0,-14.6305
14.66,-0.01,1465,0,-14.7036
14.76,-0.01,1465,0,-14.8086
14.86,-0.01,1465,0,-14.9056
14.96,-0.01,1465,0,-14.9838
15.06,-0.01,1465,0,-15.0712
15.16,-0.01,1465,0,-15.2247
15.26,-0.01,1465,0,-15.35
15.36,-0.01,1465,0,-15.4413
15.46,-0.01,1465,0,-15.5386
15.56,-0.01,1465,0,-15.6258
15.66,-0.01,1465,0,-15.705
15.76,-0.01,1465,0,-15.7974
15.86,-0.01,1465,0,-15.9415
15.96,-0.01,1465,0,-16.0443
16.06,-0.01,1465,0,-16.1498
16.16,-0.01,1465,0,-16.2383
16.26,-0.01,1465,0,-16.3324
16.36,-0.01,1465,0,-16.4413
16.46,-0.01,1465,0,-16.5283
16.56,-0.01,1465,0,-16.6239
16.66,-0.01,1465,0,-16.7203
16.76,-0.01,1465,0,-16.8214
16.86,-0.01,1465,0,-16.9172
16.96,-0.01,1465,0,-17.0133
17.06,-0.01,1465,0,-17.108
17.16,-0.01,1465,0,-17.206
17.26,-0.01,1465,0,-17.2989
17.36,-0.01,1465,0,-17.3912
17.46,-0.01,1465,0,-17.4813
17.56,-0.01,1465,0,-17.581
17.66,-0.01,1465,0,-17.7814
17.76,-0.01,1465,0,-17.8635
17.86,-0.01,1465,0,-17.9846
17.96,-0.01,1465,0,-18.0562
18.06,-0.01,1465,0,-18.171
18.16,-0.01,1465,0,-18.2634
18.26,-0.01,1465,0,-18.3832
18.36,-0.01,1465,0,-18.4936
18.46,-0.01,1465,0,-18.5853
18.56,-0.01,1465,0,-18.6846
18.66,-0.01,1465,0,-18.7775
18.76,-0.01,1465,0,-18.8712
18.86,-0.01,1465,0,-18.9601
18.96,-0.01,1465,0,-19.054
19.06,-0.01,1465,0,-19.1503
19.16,-0.01,1465,0,-19.2371
19.26,-0.01,1465,0,-19.337
19.36,-0.01,1465,0,-19.4462
19.46,-0.01,1465,0,-19.5488
19.56,-0.01,1465,0,-19.7123
19.66,-0.01,1465,0,-19.7914
19.76,-0.01,1465,0,-19.9058
19.86,-0.01,1465,0,-19.9754
19.96,-0.01,1465,0,-20.1078
20.06,-0.01,1465,0,-20.1962
20.16,-0.01,1465,0,-20.299
20.26,-0.01,1465,0,-20.392
20.36,-0.01,1465,0,-20.4957
20.46,-0.01,1465,0,-20.5986
20.56,-0.01,1465,0,-20.6833
20.66,-0.01,1465,0,-20.8355
20.76,-0.01,1465,0,-20.9117
20.86,-0.01,1465,0,-21.0333
20.96,-0.01,1465,0,-21.1398
21.06,-0.01,1465,0,-21.2401
21.16,-0.01,1465,0,-21.3213
21.26,-0.01,1465,0,-21.4078
21.36,-0.01,1465,0,-21.5026
21.46,-0.01,1465,0,-21.6076
21.56,-0.01,1465,0,-21.7141
21.66,-0.01,1465,0,-21.796
21.76,-0.01,1465,0,-21.891
21.86,-0.01,1465,0,-22.0044
21.96,-0.01,1465,0,-22.1234
22.06,-0.01,1465,0,-22.2381
22.16,-0.01,1465,0,-22.3428
22.26,-0.01,1465,0,-22.447
22.36,-0.01,1465,0,-22.5363
22.46,-0.01,1465,0,-22.668
22.56,-0.01,1465,0,-22.7537
22.66,-0.01,1465,0,-22.8826
22.76,-0.01,1465,0,-22.9016
22.86,-0.01,1465,0,-23.012
22.96,-0.01,1465,0,-23.1346
23.06,-0.01,1465,0,-23.2519
23.16,-0.01,1465,0,-23.3837
23.26,-0.01,1465,0,-23.4852
23.36,-0.01,1465,0,-23.6009
23.46,-0.01,1465,0,-23.6743
23.56,-0.01,1465,0,-23.8096
23.66,-0.01,1465,0,-23.8849
23.76,-0.01,1465,0,-23.9291
23.86,-0.01,1465,0,-24.0629
23.96,-0.01,1465,0,-24.179
24.06,-0.01,1465,0,-24.3035
24.16,-0.01,1465,0,-24.394
24.26,-0.01,1465,0,-24.5065
24.36,-0.01,1465,0,-24.6067
24.46,-0.01,1465,0,-24.7412
24.56,-0.01,1465,0,-24.7742
24.66,-0.01,1465,0,-24.8881
24.76,-0.01,1465,0,-25.0033
24.86,-0.01,1465,0,-25.0966
24.96,-0.01,1465,0,-25.2145
25.06,-0.01,1465,0,-25.3302
25.16,-0.01,1465,0,-25.4573
25.26,-0.01,1465,0,-25.4673
25.36,-0.01,1465,0,-25.5943
25.46,-0.01,1465,0,-25.7132
25.56,-0.01,1465,0,-25.8423
25.66,-0.01,1465,0,-25.9626
25.76,-0.01,1465,0,-26.0391
25.86,-0.01,1465,0,-26.1986
25.96,-0.01,1465,0,-26.24
26.06,-0.01,1465,0,-26.3542
26.16,-0.01,1465,0,-26.4674
26.26,-0.01,1465,0,-26.5631
26.36,-0.01,1465,0,-26.6753
26.46,-0.01,1465,0,-26.7831
26.56,-0.01,1465,0,-26.9141
26.66,-0.01,1465,0,-26.9248
26.76,-0.01,1465,0,-27.0698
26.86,-0.01,1465,0,-27.1928
26.96,-0.01,1465,0,-27.3136
27.06,-0.01,1465,0,-27.4214
27.16,-0.01,1465,0,-27.5391
27.26,-0.01,1465,0,-27.6358
27.36,-0.01,1465,0,-27.7424
27.46,-0.01,1465,0,-27.8056
27.56,-0.01,1465,0,-27.9126
27.66,-0.01,1465,0,-28.0052
27.76,-0.01,1465,0,-28.1238
27.86,-0.01,1465,0,-28.2212
27.96,-0.01,1465,0,-28.2815
28.06,-0.01,1465,0,-28.3969
28.16,-0.01,1465,0,-28.5139
28.26,-0.01,1465,0,-28.5655
28.36,-0.01,1465,0,-28.7093
28.46,-0.01,1465,0,-28.74
28.56,-0.01,1465,0,-28.8843
28.66,-0.01,1465,0,-29.0618
28.76,-0.01,1465,0,-29.1383
28.86,-0.01,1465,0,-29.2091
28.96,-0.01,1465,0,-29.3045
29.06,-0.01,1465,0,-29.4183
29.16,-0.01,1465,0,-29.5419
29.26,-0.01,1465,0,-29.6864
29.36,-0.01,1465,0,-29.8132
29.46,-0.01,1465,0,-29.9516
29.56,-0.01,1465,0,-30.0276
29.66,-0.01,1465,0,-30.1767
29.76,-0.01,1465,0,-30.2113
29.86,-0.01,1465,0,-30.3104
29.96,-0.01,1465,0,-30.4162
30.06,-0.01,1465,0,-30.5639
30.16,-0.01,1465,0,-30.693
30.26,-0.01,1465,0,-30.704
30.36,-0.01,1465,0,-30.7984
30.46,-0.01,1465,0,-30.8844
30.56,-0.01,1465,0,-31.0047
30.66,-0.01,1465,0,-31.1282
30.76,-0.01,1465,0,-31.2113
30.86,-0.01,1465,0,-31.2382
30.96,-0.01,1465,0,-31.3823
31.06,-0.01,1465,0,-31.4967
31.16,-0.01,1465,0,-31.6164
31.26,-0.01,1465,0,-31.7247
31.36,-0.01,1465,0,-31.8834
31.46,-0.01,1465,0,-31.9086
31.56,-0.01,1465,0,-32.0624
31.66,-0.01,1465,0,-32.186
31.76,-0.01,1465,0,-32.2985
31.86,-0.01,1465,0,-32.3983
31.96,-0.01,1465,0,-32.4821
32.06,-0.01,1465,0,-32.5353
32.16,-0.01,1465,0,-32.6529
32.26,-0.01,1465,0,-32.7451
32.36,-0.01,1465,0,-32.8676
32.46,-0.01,1465,0,-33.0447
32.56,-0.01,1465,0,-33.0436
32.66,-0.01,1465,0,-33.1705
32.76,-0.01,1465,0,-33.3189
32.86,-0.01,1465,0,-33.4013
32.96,-0.01,1465,0,-33.4593
33.06,-0.01,1465,0,-33.6038
33.16,-0.01,1465,0,-33.6404
33.26,-0.01,1465,0,-33.8349
33.36,-0.01,1465,0,-33.9756
33.46,-0.01,1465,0,-34.1266
33.56,-0.01,1465,0,-34.2166
33.66,-0.01,1465,0,-34.2916
33.76,-0.01,1465,0,-34.4482
33.86,-0.01,1465,0,-34.4598
33.96,-0.01,1465,0,-34.5004
34.06,-0.01,1465,0,-34.6658
34.16,-0.01,1465,0,-34.6418
34.26,-0.01,1465,0,-34.8087
34.36,-0.01,1465,0,-35.0307
34.46,-0.01,1465,0,-35.1745
34.56,-0.01,1465,0,-35.2821
34.66,-0.01,1465,0,-35.3681
34.76,0,1465,0,-35.4408
34.86,-0.01,1465,0,-35.5849
34.96,-0.01,1465,0,-35.6719
35.06,-0.01,1465,0,-35.8294
35.16,-0.01,1465,0,-35.8763
35.26,-0.01,1465,0,-35.9259
35.36,-0.01,1465,0,-35.9538
35.46,-0.01,1465,0,-36.0778
35.56,-0.01,1465,0,-36.2636
35.66,-0.01,1465,0,-36.3546
35.76,-0.01,1465,0,-36.4056
35.86,-0.01,1465,0,-36.5509
35.96,-0.01,1465,0,-36.6938
36.06,-0.01,1465,0,-36.7203
36.16,-0.01,1465,0,-36.7751
36.26,-0.01,1465,0,-36.8377
36.36,-0.01,1465,0,-36.9761
36.46,-0.01,1465,0,-37.183
36.56,-0.01,1465,0,-37.3986
36.66,-0.01,1465,0,-37.5916
36.76,-0.01,1465,0,-37.6529
36.86,0,1465,0,-37.7582
36.96,-0.01,1465,0,-37.887
37.06,0,1465,0,-37.8713
37.16,-0.01,1465,0,-38.0381
37.26,-0.01,1465,0,-38.1003
37.36,-0.01,1465,0,-38.1364
37.46,-0.01,1465,0,-38.2956
37.56,-0.01,1465,0,-38.4297
37.66,-0.01,1465,0,-38.3626
37.76,-0.01,1465,0,-38.4398
37.86,-0.01,1465,0,-38.5645
37.96,-0.01,1465,0,-38.6416
38.06,-0.01,1465,0,-38.8904
38.16,-0.01,1465,0,-39.0109
38.26,-0.01,1465,0,-39.1453
38.36,-0.01,1465,0,-39.1728
38.46,-0.01,1465,0,-39.143
38.56,-0.01,1465,0,-39.3497
38.66,-0.01,1465,0,-39.573
38.76,-0.01,1465,0,-39.7304
38.86,-0.01,1465,0,-39.8244
38.96,-0.01,1465,0,-39.8881
39.06,-0.01,1465,0,-39.9539
39.16,-0.01,1465,0,-40.0692
39.26,-0.01,1465,0,-40.0794
39.36,-0.01,1465,0,-40.2631
39.46,-0.01,1465,0,-40.2062
39.56,-0.01,1465,0,-40.2912
39.66,-0.01,1465,0,-40.1856
39.76,-0.01,1465,0,-40.314
39.86,-0.01,1465,0,-40.4808
39.96,-0.01,1465,0,-40.5643
40.06,-0.01,1465,0,-40.8042
40.16,-0.01,1465,0,-40.8583
40.26,-0.01,1465,0,-40.9601
40.36,-0.01,1465,0,-41.1404
40.46,-0.01,1465,0,-41.3057
40.56,-0.01,1465,0,-41.4808
40.66,-0.01,1465,0,-41.5855
40.76,-0.01,1465,0,-41.6225
40.86,-0.01,1465,0,-41.7426
40.96,-0.01,1465,0,-41.7538
41.06,-0.01,1465,0,-42.0362
41.16,-0.01,1465,0,-42.1535
41.26,-0.01,1465,0,-42.155
41.36,-0.01,1465,0,-42.3591
41.46,-0.01,1465,0,-42.4466
41.56,-0.01,1465,0,-42.4604
41.66,-0.01,1465,0,-42.9044
41.76,-0.01,1465,0,-42.5321
41.86,-0.01,1465,0,-42.9824
41.96,-0.01,1465,0,-42.752
42.06,-0.01,1465,0,-42.9224
42.16,-0.01,1465,0,-42.8734
42.26,-0.01,1465,0,-43.2141
42.36,-0.01,1465,0,-43.3485
42.46,-0.01,1465,0,-43.2334
42.56,-0.01,1465,0,-43.4187
42.66,-0.01,1465,0,-43.4563
42.76,-0.01,1465,0,-43.5991
42.86,-0.01,1465,0,-43.8972
42.96,-0.01,1465,0,-43.9197
43.06,-0.01,1465,0,-44.0336
43.16,-0.01,1465,0,-44.1054
43.26,-0.01,1465,0,-44.0807
43.36,-0.01,1465,0,-44.2191
43.46,-0.01,1465,0,-44.3559
43.56,-0.01,1465,0,-44.6632
43.66,-0.01,1465,0,-44.5122
43.76,-0.01,1465,0,-44.9137
43.86,-0.01,1465,0,-44.9464
43.96,-0.01,1465,0,-45.0274
44.06,-0.01,1465,0,-44.9576
44.16,-0.01,1465,0,-45.1081
44.26,-0.01,1465,0,-44.9438
44.36,-0.01,1465,0,-45.328
44.46,-0.01,1465,0,-45.5275
44.56,-0.01,1465,0,-45.6417
44.66,-0.01,1465,0,-46.0275
44.76,-0.01,1465,0,-45.9761
44.86,-0.01,1465,0,-46.1729
44.96,-0.01,1465,0,-45.9794
45.06,-0.01,1465,0,-46.2045
45.16,-0.01,1465,0,-46.6576
45.26,-0.01,1465,0,-46.8785
45.36,-0.01,1465,0,-46.9841
45.46,-0.01,1465,0,-46.7685
45.56,-0.01,1465,0,-46.8614
45.66,-0.01,1465,0,-46.879
45.76,-0.01,1465,0,-47.1103
45.86,-0.01,1465,0,-47.0705
45.96,-0.01,1465,0,-47.2782
46.06,-0.01,1465,0,-47.3274
46.16,-0.01,1465,0,-47.6667
46.26,-0.01,1465,0,-47.5878
46.36,-0.01,1465,0,-47.7057
46.46,-0.01,1465,0,-47.4469
46.56,-0.01,1465,0,-47.8
46.66,-0.01,1465,0,-47.8681
46.76,-0.01,1465,0,-47.8886
46.86,-0.01,1465,0,-47.9453
46.96,-0.01,1465,0,-47.99
47.06,-0.01,1465,0,-48.1598
47.16,-0.01,1465,0,-48.1237
47.26,-0.01,1465,0,-48.2618
47.36,-0.01,1465,0,-48.7686
47.46,-0.01,1465,0,-48.4459
47.56,-0.01,1465,0,-48.692
47.66,-0.01,1465,0,-49.012
47.76,-0.01,1465,0,-48.7622
47.86,-0.01,1465,0,-48.9138
47.96,-0.01,1465,0,-48.9859
48.06,-0.01,1465,0,-49.1692
48.16,-0.01,1465,0,-49.1244
48.26,-0.01,1465,0,-49.4448
48.36,-0.01,1465,0,-49.3986
48.46,-0.01,1465,0,-49.2374
48.56,-0.01,1465,0,-49.2274
48.66,-0.01,1465,0,-49.5776
48.76,-0.01,1465,0,-49.6218
48.86,-0.01,1465,0,-50.3957
48.96,-0.01,1465,0,-50.3947
49.06,-0.01,1465,0,-50.3291
49.16,-0.01,1465,0,-50.4576
49.26,-0.01,1465,0,-50.6412
49.36,-0.01,1465,0,-50.5257
49.46,-0.01,1465,0,-50.8534
49.56,-0.01,1465,0,-50.8606
49.66,-0.01,1465,0,-51.5076
49.76,-0.01,1465,0,-51.4794
49.86,-0.01,1465,0,-51.6621
49.96,-0.01,1465,0,-51.6885
50.06,-0.01,1465,0,-51.5354
50.16,-0.01,1465,0,-51.667
50.26,-0.01,1465,0,-51.4835
50.36,-0.01,1465,0,-52.1511
50.46,-0.01,1465,0,-51.8571
50.56,-0.01,1465,0,-51.8466
50.66,-0.01,1465,0,-52.146
50.76,-0.01,1465,0,-52.0804
50.86,-0.01,1465,0,-52.2456
50.96,-0.01,1465,0,-52.4538
51.06,-0.01,1465,0,-52.5455
51.16,-0.01,1465,0,-52.35
51.26,-0.01,1465,0,-52.0339
51.36,-0.01,1465,0,-52.0894
51.46,-0.01,1465,0,-51.7408
51.56,-0.01,1465,0,-51.7678
51.66,-0.01,1465,0,-52.4609
51.76,-0.01,1465,0,-52.537
51.86,-0.01,1465,0,-53.0195
51.96,-0.01,1465,0,-52.7936
52.06,-0.01,1465,0,-53.4707
52.16,-0.01,1465,0,-53.7839
52.26,-0.01,1465,0,-54.4571
52.36,-0.01,1465,0,-54.5418
52.46,-0.01,1465,0,-54.2389
52.56,-0.01,1465,0,-54.2897
52.66,-0.01,1465,0,-54.4643
52.76,-0.01,1465,0,-54.3396
52.86,-0.01,1465,0,-54.485
52.96,-0.01,1465,0,-55.058
53.06,-0.01,1465,0,-55.1904
53.16,-0.01,1465,0,-54.9238
53.26,-0.01,1465,0,-55.3119
53.36,-0.01,1465,0,-54.7666
53.46,-0.01,1465,0,-55.2378
53.56,-0.01,1465,0,-55.324
53.66,-0.01,1465,0,-55.7304
53.76,-0.01,1465,0,-56.0996
53.86,-0.01,1465,0,-55.9007
53.96,-0.01,1465,0,-55.6607
54.06,-0.01,1465,0,-55.6752
54.16,-0.01,1465,0,-55.995
54.26,-0.01,1465,0,-56.108
54.36,-0.01,1465,0,-56.3859
54.46,-0.01,1465,0,-57.2297
54.56,-0.01,1465,0,-57.2096
54.66,-0.01,1465,0,-56.5971
54.76,-0.01,1465,0,-56.6101
54.86,-0.01,1465,0,-56.3086
54.96,-0.01,1465,0,-56.2129
55.06,-0.01,1465,0,-55.6333
55.16,-0.01,1465,0,-55.6551
55.26,-0.01,1465,0,-55.5225
55.36,-0.01,1465,0,-55.1582
55.46,-0.01,1465,0,-55.1426
55.56,-0.01,1465,0,-56.2397
55.66,-0.01,1465,0,-55.9702
55.76,-0.01,1465,0,-55.8865
55.86,-0.01,1465,0,-56.3342
55.96,-0.01,1465,0,-57.8284
56.06,-0.01,1465,0,-57.8202
56.16,-0.01,1465,0,-58.0372
56.26,-0.01,1465,0,-58.0482
56.36,-0.01,1465,0,-58.4693
56.46,-0.01,1465,0,-58.305
56.56,-0.01,1465,0,-58.0664
56.66,-0.01,1465,0,-58.7705
56.76,-0.01,1465,0,-58.5074
56.86,-0.01,1465,0,-58.8034
56.96,-0.01,1465,0,-59.889
57.06,-0.01,1465,0,-59.1985
57.16,-0.01,1465,0,-58.705
57.26,-0.01,1465,0,-58.6072
57.36,-0.01,1465,0,-58.2989
57.46,-0.01,1465,0,-59.3559
57.56,-0.01,1465,0,-60.2251
57.66,-0.01,1465,0,-60.3154
57.76,-0.01,1465,0,-61.1971
57.86,-0.01,1465,0,-62.1402
57.96,-0.01,1465,0,-61.2895
58.06,-0.01,1465,0,-61.3288
58.16,-0.01,1465,0,-60.6707
58.26,-0.01,1465,0,-60.8592
58.36,-0.01,1465,0,-59.61
58.46,-0.01,1465,0,-59.7997
58.56,-0.01,1465,0,-59.8099
58.66,-0.01,1465,0,-60.7349
58.76,-0.01,1465,0,-60.8012
58.86,-0.01,1465,0,-61.7576
58.96,-0.01,1465,0,-62.4772
59.06,-0.01,1465,0,-64.5809
59.16,-0.01,1465,0,-63.9695
59.26,-0.01,1465,0,-64.0339
59.36,-0.01,1465,0,-64.4849
59.46,-0.01,1465,0,-62.4148
59.56,-0.01,1465,0,-62.6225
59.66,-0.01,1465,0,-63.6499
59.76,-0.01,1465,0,-63.344
59.86,-0.01,1465,0,-62.7533
59.96,-0.01,1465,0,-62.0579
0.66,-0.01,1520,0,-0.70641
0.76,-0.01,1520,0,-0.801818
0.86,-0.01,1520,0,-0.902941
0.96,-0.01,1520,0,-0.999572
1.06,-0.01,1520,0,-1.1009
1.16,-0.01,1520,0,-1.20513
1.26,-0.01,1520,0,-1.30549
1.36,-0.01,1520,0,-1.40813
1.46,-0.01,1520,0,-1.50413
1.56,-0.01,1520,0,-1.60841
1.66,-0.01,1520,0,-1.71087
1.76,-0.01,1520,0,-1.80472
1.86,-0.01,1520,0,-1.91024
1.96,-0.01,1520,0,-2.00877
2.06,-0.01,1520,0,-2.11187
2.16,-0.01,1520,0,-2.21717
2.26,-0.01,1520,0,-2.31039
2.36,-0.01,1520,0,-2.41127
2.46,-0.01,1520,0,-2.51053
2.56,-0.01,1520,0,-2.60398
2.66,-0.01,1520,0,-2.70071
2.76,-0.01,1520,0,-2.7992
2.86,-0.01,1520,0,-2.90175
2.96,-0.01,1520,0,-3.0078
3.06,-0.01,1520,0,-3.10625
3.16,-0.01,1520,0,-3.19446
3.26,-0.01,1520,0,-3.30402
3.36,-0.01,1520,0,-3.41735
3.46,-0.01,1520,0,-3.50888
3.56,-0.01,1520,0,-3.60504
3.66,-0.01,1520,0,-3.69516
3.76,-0.01,1520,0,-3.81431
3.86,-0.01,1520,0,-3.91535
3.96,-0.01,1520,0,-4.01458
4.06,-0.01,1520,0,-4.1105
4.16,-0.01,1520,0,-4.19005
4.26,-0.01,1520,0,-4.29863
4.36,-0.01,1520,0,-4.40703
4.46,-0.01,1520,0,-4.48757
4.56,-0.01,1520,0,-4.60685
4.66,-0.01,1520,0,-4.69311
4.76,-0.01,1520,0,-4.81078
4.86,-0.01,1520,0,-4.89826
4.96,-0.01,1520,0,-5.00775
5.06,-0.01,1520,0,-5.10844
5.16,-0.01,1520,0,-5.19017
5.26,-0.01,1520,0,-5.31356
5.36,-0.01,1520,0,-5.41204
5.46,-0.01,1520,0,-5.49791
5.56,-0.01,1520,0,-5.62476
5.66,-0.01,1520,0,-5.71373
5.76,-0.01,1520,0,-5.80053
5.86,-0.01,1520,0,-5.92126
5.96,-0.01,1520,0,-6.01368
6.06,-0.01,1520,0,-6.11365
6.16,-0.01,1520,0,-6.20995
6.26,-0.01,1520,0,-6.30581
6.36,-0.01,1520,0,-6.40638
6.46,-0.01,1520,0,-6.51083
6.56,-0.01,1520,0,-6.61116
6.66,-0.01,1520,0,-6.68427
6.76,-0.01,1520,0,-6.79042
6.86,-0.01,1520,0,-6.89615
6.96,-0.01,1520,0,-6.99288
7.06,-0.01,1520,0,-7.07982
7.16,-0.01,1520,0,-7.18913
7.26,-0.01,1520,0,-7.30179
7.36,-0.01,1520,0,-7.37271
7.46,-0.01,1520,0,-7.48668
7.56,-0.01,1520,0,-7.58398
7.66,-0.01,1520,0,-7.67955
7.76,-0.01,1520,0,-7.79706
7.86,-0.01,1520,0,-7.87184
7.96,-0.01,1520,0,-7.98986
8.06,-0.01,1520,0,-8.06534
8.16,-0.01,1520,0,-8.18692
8.26,-0.01,1520,0,-8.3149
8.36,-0.01,1520,0,-8.3905
8.46,-0.01,1520,0,-8.4595
8.56,-0.01,1520,0,-8.58206
8.66,-0.01,1520,0,-8.65735
8.76,-0.01,1520,0,-8.78642
8.86,-0.01,1520,0,-8.85911
8.96,-0.01,1520,0,-8.98324
9.06,-0.01,1520,0,-9.05699
9.16,-0.01,1520,0,-9.16426
9.26,-0.01,1520,0,-9.2565
9.36,-0.01,1520,0,-9.38124
9.46,-0.01,1520,0,-9.45869
9.56,-0.01,1520,0,-9.56558
9.66,-0.01,1520,0,-9.6537
9.76,-0.01,1520,0,-9.77086
9.86,-0.01,1520,0,-9.8516
9.96,-0.01,1520,0,-9.95985
10.06,-0.01,1520,0,-10.055
10.16,-0.01,1520,0,-10.1776
10.26,-0.01,1520,0,-10.2566
10.36,-0.01,1520,0,-10.3385
10.46,-0.01,1520,0,-10.4651
10.56,-0.01,1520,0,-10.5472
10.66,-0.01,1520,0,-10.6446
10.76,-0.01,1520,0,-10.7419
10.86,-0.01,1520,0,-10.8707
10.96,-0.01,1520,0,-10.9567
11.06,-0.01,1520,0,-11.0341
11.16,-0.01,1520,0,-11.1639
11.26,-0.01,1520,0,-11.2514
11.36,-0.01,1520,0,-11.3414
11.46,-0.01,1520,0,-11.493
11.56,-0.01,1520,0,-11.5821
11.66,-0.01,1520,0,-11.6768
11.76,-0.01,1520,0,-11.7494
11.86,-0.01,1520,0,-11.8253
11.96,-0.01,1520,0,-11.9831
12.06,-0.01,1520,0,-12.0726
12.16,-0.01,1520,0,-12.1664
12.26,-0.01,1520,0,-12.2393
12.36,-0.01,1520,0,-12.3885
12.46,-0.01,1520,0,-12.4853
12.56,-0.01,1520,0,-12.5707
12.66,-0.01,1520,0,-12.6604
12.76,-0.01,1520,0,-12.7343
12.86,-0.01,1520,0,-12.8807
12.96,-0.01,1520,0,-12.9777
13.06,-0.01,1520,0,-13.0652
13.16,-0.01,1520,0,-13.1472
13.26,-0.01,1520,0,-13.2132
13.36,-0.01,1520,0,-13.3629
13.46,-0.01,1520,0,-13.4713
13.56,-0.01,1520,0,-13.5583
13.66,-0.01,1520,0,-13.628
13.76,-0.01,1520,0,-13.7732
13.86,-0.01,1520,0,-13.855
13.96,-0.01,1520,0,-13.9423
14.06,-0.01,1520,0,-14.0195
14.16,-0.01,1520,0,-14.1604
14.26,-0.01,1520,0,-14.2588
14.36,-0.01,1520,0,-14.3482
14.46,-0.01,1520,0,-14.4193
14.56,-0.01,1520,0,-14.5839
14.66,-0.01,1520,0,-14.6596
14.76,-0.01,1520,0,-14.7744
14.86,-0.01,1520,0,-14.879
14.96,-0.01,1520,0,-14.959
15.06,-0.01,1520,0,-15.0356
15.16,-0.01,1520,0,-15.1752
15.26,-0.01,1520,0,-15.2794
15.36,-0.01,1520,0,-15.3623
15.46,-0.01,1520,0,-15.4608
15.56,-0.01,1520,0,-15.5496
15.66,-0.01,1520,0,-15.6342
15.76,-0.01,1520,0,-15.7258
15.86,-0.01,1520,0,-15.8698
15.96,-0.01,1520,0,-15.9707
16.06,-0.01,1520,0,-16.0846
16.16,-0.01,1520,0,-16.186
16.26,-0.01,1520,0,-16.2859
16.36,-0.01,1520,0,-16.3848
16.46,-0.01,1520,0,-16.4718
16.56,-0.01,1520,0,-16.5612
16.66,-0.01,1520,0,-16.6598
16.76,-0.01,1520,0,-16.7445
16.86,-0.01,1520,0,-16.8381
16.96,-0.01,1520,0,-16.9302
17.06,-0.01,1520,0,-17.0203
17.16,-0.01,1520,0,-17.1175
17.26,-0.01,1520,0,-17.2078
17.36,-0.01,1520,0,-17.3034
17.46,-0.01,1520,0,-17.3968
17.56,-0.01,1520,0,-17.4965
17.66,-0.01,1520,0,-17.6939
17.76,-0.01,1520,0,-17.768
17.86,-0.01,1520,0,-17.8829
17.96,-0.01,1520,0,-17.9671
18.06,-0.01,1520,0,-18.0803
18.16,-0.01,1520,0,-18.1668
18.26,-0.01,1520,0,-18.2747
18.36,-0.01,1520,0,-18.3719
18.46,-0.01,1520,0,-18.4653
18.56,-0.01,1520,0,-18.5701
18.66,-0.01,1520,0,-18.6688
18.76,-0.01,1520,0,-18.7636
18.86,-0.01,1520,0,-18.8487
18.96,-0.01,1520,0,-18.9391
19.06,-0.01,1520,0,-19.0382
19.16,-0.01,1520,0,-19.1151
19.26,-0.01,1520,0,-19.2134
19.36,-0.01,1520,0,-19.3123
19.46,-0.01,1520,0,-19.4174
19.56,-0.01,1520,0,-19.599
19.66,-0.01,1520,0,-19.6772
19.76,-0.01,1520,0,-19.7989
19.86,-0.01,1520,0,-19.8675
19.96,-0.01,1520,0,-19.9797
20.06,-0.01,1520,0,-20.0726
20.16,-0.01,1520,0,-20.1754
20.26,-0.01,1520,0,-20.2613
20.36,-0.01,1520,0,-20.3486
20.46,-0.01,1520,0,-20.4531
20.56,-0.01,1520,0,-20.556
20.66,-0.01,1520,0,-20.6789
20.76,-0.01,1520,0,-20.767
20.86,-0.01,1520,0,-20.8744
20.96,-0.01,1520,0,-20.979
21.06,-0.01,1520,0,-21.0671
21.16,0,1520,0,-21.1615
21.26,-0.01,1520,0,-21.2574
21.36,-0.01,1520,0,-21.3561
21.46,-0.01,1520,0,-21.4435
21.56,-0.01,1520,0,-21.5395
21.66,-0.01,1520,0,-21.6568
21.76,-0.01,1520,0,-21.7597
21.86,-0.01,1520,0,-21.8589
21.96,-0.01,1520,0,-21.966
22.06,-0.01,1520,0,-22.0692
22.16,-0.01,1520,0,-22.179
22.26,-0.01,1520,0,-22.2721
22.36,-0.01,1520,0,-22.3444
22.46,-0.01,1520,0,-22.4745
22.56,-0.01,1520,0,-22.5597
22.66,-0.01,1520,0,-22.6893
22.76,-0.01,1520,0,-22.7097
22.86,-0.01,1520,0,-22.8427
22.96,-0.01,1520,0,-22.944
23.06,-0.01,1520,0,-23.0426
23.16,-0.01,1520,0,-23.1408
23.26,-0.01,1520,0,-23.23
23.36,-0.01,1520,0,-23.3355
23.46,-0.01,1520,0,-23.4135
23.56,-0.01,1520,0,-23.5516
23.66,-0.01,1520,0,-23.6466
23.76,-0.01,1520,0,-23.7055
23.86,-0.01,1520,0,-23.816
23.96,-0.01,1520,0,-23.917
24.06,-0.01,1520,0,-24.0053
24.16,-0.01,1520,0,-24.0912
24.26,-0.01,1520,0,-24.2019
24.36,-0.01,1520,0,-24.2807
24.46,-0.01,1520,0,-24.4353
24.56,-0.01,1520,0,-24.46
24.66,-0.01,1520,0,-24.5662
24.76,-0.01,1520,0,-24.678
24.86,-0.01,1520,0,-24.8015
24.96,-0.01,1520,0,-24.9102
25.06,-0.01,1520,0,-25.0259
25.16,-0.01,1520,0,-25.1395
25.26,-0.01,1520,0,-25.1822
25.36,-0.01,1520,0,-25.3003
25.46,-0.01,1520,0,-25.4161
25.56,-0.01,1520,0,-25.5348
25.66,-0.01,1520,0,-25.639
25.76,-0.01,1520,0,-25.7148
25.86,-0.01,1520,0,-25.8501
25.96,0,1520,0,-25.8906
26.06,-0.01,1520,0,-25.9913
26.16,-0.01,1520,0,-26.1077
26.26,-0.01,1520,0,-26.2012
26.36,-0.01,1520,0,-26.3228
26.46,-0.01,1520,0,-26.4288
26.56,-0.01,1520,0,-26.5974
26.66,-0.01,1520,0,-26.6391
26.76,-0.01,1520,0,-26.7404
26.86,-0.01,1520,0,-26.8001
26.96,0,1520,0,-26.8987
27.06,-0.01,1520,0,-27.0101
27.16,-0.01,1520,0,-27.1341
27.26,-0.01,1520,0,-27.2487
27.36,-0.01,1520,0,-27.3206
27.46,-0.01,1520,0,-27.3836
27.56,-0.01,1520,0,-27.4741
27.66,-0.01,1520,0,-27.5879
27.76,-0.01,1520,0,-27.7087
27.86,0,1520,0,-27.7881
27.96,0,1520,0,-27.8986
28.06,-0.01,1520,0,-28.0143
28.16,0,1520,0,-28.1107
28.26,-0.01,1520,0,-28.263
28.36,-0.01,1520,0,-28.4277
28.46,-0.01,1520,0,-28.4479
28.56,-0.01,1520,0,-28.5247
28.66,-0.01,1520,0,-28.6008
28.76,-0.01,1520,0,-28.7183
28.86,-0.01,1520,0,-28.8604
28.96,-0.01,1520,0,-28.9984
29.06,-0.01,1520,0,-29.1127
29.16,-0.01,1520,0,-29.2127
29.26,-0.01,1520,0,-29.2775
29.36,-0.01,1520,0,-29.3795
29.46,-0.01,1520,0,-29.5258
29.56,-0.01,1520,0,-29.6105
29.66,-0.01,1520,0,-29.7277
29.76,-0.01,1520,0,-29.7804
29.86,-0.01,1520,0,-29.8327
29.96,-0.01,1520,0,-29.9088
30.06,-0.01,1520,0,-30.0352
30.16,-0.01,1520,0,-30.2187
30.26,-0.01,1520,0,-30.2216
30.36,-0.01,1520,0,-30.3563
30.46,-0.01,1520,0,-30.4374
30.56,-0.01,1520,0,-30.5298
30.66,-0.01,1520,0,-30.6676
30.76,-0.01,1520,0,-30.7616
30.86,-0.01,1520,0,-30.8251
30.96,-0.01,1520,0,-30.9552
31.06,-0.01,1520,0,-31.0721
31.16,-0.01,1520,0,-31.2057
31.26,-0.01,1520,0,-31.289
31.36,-0.01,1520,0,-31.4535
31.46,-0.01,1520,0,-31.4684
31.56,-0.01,1520,0,-31.6244
31.66,-0.01,1520,0,-31.7149
31.76,-0.01,1520,0,-31.8221
31.86,-0.01,1520,0,-31.927
31.96,-0.01,1520,0,-32.0236
32.06,-0.01,1520,0,-32.0741
32.16,-0.01,1520,0,-32.2257
32.26,0,1520,0,-32.3715
32.36,-0.01,1520,0,-32.4849
32.46,-0.01,1520,0,-32.5861
32.56,-0.01,1520,0,-32.5946
32.66,-0.01,1520,0,-32.6937
32.76,-0.01,1520,0,-32.8389
32.86,-0.01,1520,0,-32.8733
32.96,-0.01,1520,0,-32.9274
33.06,-0.01,1520,0,-33.0836
33.16,-0.01,1520,0,-33.0919
33.26,-0.01,1520,0,-33.1727
33.36,-0.01,1520,0,-33.328
33.46,-0.01,1520,0,-33.4578
33.56,-0.01,1520,0,-33.6318
33.66,-0.01,1520,0,-33.7283
33.76,-0.01,1520,0,-33.8263
33.86,-0.01,1520,0,-33.9395
33.96,-0.01,1520,0,-34.0165
34.06,-0.01,1520,0,-34.0951
34.16,-0.01,1520,0,-34.0941
34.26,-0.01,1520,0,-34.2605
34.36,-0.01,1520,0,-34.3915
34.46,-0.01,1520,0,-34.4157
34.56,-0.01,1520,0,-34.5558
34.66,-0.01,1520,0,-34.7256
34.76,-0.01,1520,0,-34.8442
34.86,-0.01,1520,0,-35.0244
34.96,-0.01,1520,0,-35.0956
35.06,-0.01,1520,0,-35.2286
35.16,-0.01,1520,0,-35.3316
35.26,-0.01,1520,0,-35.501
35.36,-0.01,1520,0,-35.5135
35.46,-0.01,1520,0,-35.5461
35.56,-0.01,1520,0,-35.6433
35.66,-0.01,1520,0,-35.7814
35.76,-0.01,1520,0,-35.9479
35.86,0,1520,0,-35.9572
35.96,-0.01,1520,0,-36.1578
36.06,-0.01,1520,0,-36.3425
36.16,-0.01,1520,0,-36.3486
36.26,-0.01,1520,0,-36.4729
36.36,-0.01,1520,0,-36.5298
36.46,-0.01,1520,0,-36.5323
36.56,-0.01,1520,0,-36.6039
36.66,-0.01,1520,0,-36.6786
36.76,-0.01,1520,0,-36.821
36.86,-0.01,1520,0,-36.8818
36.96,-0.01,1520,0,-37.05
37.06,-0.01,1520,0,-37.1521
37.16,-0.01,1520,0,-37.2207
37.26,-0.01,1520,0,-37.3268
37.36,-0.01,1520,0,-37.3991
37.46,-0.01,1520,0,-37.4826
37.56,-0.01,1520,0,-37.6943
37.66,-0.01,1520,0,-37.7052
37.76,-0.01,1520,0,-37.8846
37.86,-0.01,1520,0,-37.9091
37.96,-0.01,1520,0,-37.9706
38.06,-0.01,1520,0,-38.0863
38.16,-0.01,1520,0,-38.2521
38.26,-0.01,1520,0,-38.2538
38.36,-0.01,1520,0,-38.4837
38.46,-0.01,1520,0,-38.3725
38.56,-0.01,1520,0,-38.5874
38.66,-0.01,1520,0,-38.7576
38.76,-0.01,1520,0,-38.7516
38.86,-0.01,1520,0,-38.9115
38.96,-0.01,1520,0,-39.0422
39.06,-0.01,1520,0,-39.113
39.16,-0.01,1520,0,-39.2177
39.26,-0.01,1520,0,-39.2726
39.36,-0.01,1520,0,-39.3514
39.46,-0.01,1520,0,-39.5137
39.56,0,1520,0,-39.5087
39.66,-0.01,1520,0,-39.7077
39.76,-0.01,1520,0,-39.8718
39.86,-0.01,1520,0,-39.9506
39.96,-0.01,1520,0,-40.0158
40.06,-0.01,1520,0,-40.0995
40.16,-0.01,1520,0,-40.1157
40.26,-0.01,1520,0,-40.1768
40.36,-0.01,1520,0,-40.3303
40.46,-0.01,1520,0,-40.5018
40.56,-0.01,1520,0,-40.5225
40.66,-0.01,1520,0,-40.7681
40.76,-0.01,1520,0,-40.8336
40.86,-0.01,1520,0,-40.9516
40.96,-0.01,1520,0,-41.208
41.06,-0.01,1520,0,-41.2401
41.16,-0.01,1520,0,-41.3617
41.26,-0.01,1520,0,-41.5277
41.36,0,1520,0,-41.4676
41.46,-0.01,1520,0,-41.7171
41.56,0,1520,0,-41.821
41.66,0,1520,0,-41.9592
41.76,0,1520,0,-41.8389
41.86,-0.01,1520,0,-41.9212
41.96,0,1520,0,-41.866
42.06,-0.01,1520,0,-41.9745
42.16,-0.01,1520,0,-42.1941
42.26,-0.01,1520,0,-42.4144
42.36,-0.01,1520,0,-42.4028
42.46,-0.01,1520,0,-42.4435
42.56,-0.01,1520,0,-42.4919
42.66,-0.01,1520,0,-42.4533
42.76,-0.01,1520,0,-42.6172
42.86,-0.01,1520,0,-42.8391
42.96,-0.01,1520,0,-42.8759
43.06,0,1520,0,-43.1499
43.16,-0.01,1520,0,-43.0573
43.26,-0.01,1520,0,-43.3003
43.36,-0.01,1520,0,-43.1358
43.46,-0.01,1520,0,-43.3767
43.56,-0.01,1520,0,-43.5347
43.66,-0.01,1520,0,-43.6519
43.76,-0.01,1520,0,-43.767
43.86,-0.01,1520,0,-43.8322
43.96,-0.01,1520,0,-43.8549
44.06,-0.01,1520,0,-44.0141
44.16,-0.01,1520,0,-44.0379
44.26,-0.01,1520,0,-44.4223
44.36,-0.01,1520,0,-44.5198
44.46,-0.01,1520,0,-44.4712
44.56,-0.01,1520,0,-44.6357
44.66,-0.01,1520,0,-44.9008
44.76,-0.01,1520,0,-44.8802
44.86,-0.01,1520,0,-44.9579
44.96,-0.01,1520,0,-44.9739
45.06,-0.01,1520,0,-45.6294
45.16,-0.01,1520,0,-45.4174
45.26,-0.01,1520,0,-45.7094
45.36,-0.01,1520,0,-46.0503
45.46,-0.01,1520,0,-45.8167
45.56,-0.01,1520,0,-45.8646
45.66,-0.01,1520,0,-45.9296
45.76,-0.01,1520,0,-46.0527
45.86,-0.01,1520,0,-46.0582
45.96,-0.01,1520,0,-46.3005
46.06,-0.01,1520,0,-46.3151
46.16,-0.01,1520,0,-46.1965
46.26,-0.01,1520,0,-46.7331
46.36,-0.01,1520,0,-46.27
46.46,-0.01,1520,0,-46.661
46.56,-0.01,1520,0,-46.6523
46.66,-0.01,1520,0,-46.9068
46.76,-0.01,1520,0,-46.8695
46.86,-0.01,1520,0,-47.1587
46.96,-0.01,1520,0,-47.0922
47.06,-0.01,1520,0,-47.5106
47.16,-0.01,1520,0,-47.6124
47.26,-0.01,1520,0,-47.2761
47.36,-0.01,1520,0,-47.353
47.46,-0.01,1520,0,-47.8457
47.56,-0.01,1520,0,-47.9436
47.66,-0.01,1520,0,-47.8906
47.76,-0.01,1520,0,-48.1681
47.86,-0.01,1520,0,-48.2771
47.96,-0.01,1520,0,-48.0913
48.06,-0.01,1520,0,-48.1765
48.16,-0.01,1520,0,-48.7322
48.26,-0.01,1520,0,-48.8842
48.36,-0.01,1520,0,-48.8271
48.46,-0.01,1520,0,-48.8886
48.56,-0.01,1520,0,-48.6613
48.66,-0.01,1520,0,-48.9988
48.76,-0.01,1520,0,-48.9917
48.86,-0.01,1520,0,-49.1825
48.96,-0.01,1520,0,-49.1901
49.06,-0.01,1520,0,-49.3751
49.16,-0.01,1520,0,-49.2924
49.26,-0.01,1520,0,-49.3514
49.36,-0.01,1520,0,-49.5293
49.46,-0.01,1520,0,-49.4257
49.56,-0.01,1520,0,-49.4043
49.66,-0.01,1520,0,-49.7687
49.76,-0.01,1520,0,-49.7467
49.86,-0.01,1520,0,-49.5641
49.96,-0.01,1520,0,-49.5785
50.06,-0.01,1520,0,-49.6576
50.16,-0.01,1520,0,-49.5647
50.26,-0.01,1520,0,-49.8533
50.36,-0.01,1520,0,-49.7141
50.46,-0.01,1520,0,-50.0491
50.56,-0.01,1520,0,-50.1667
50.66,-0.01,1520,0,-50.531
50.76,-0.01,1520,0,-50.6811
50.86,-0.01,1520,0,-51.1416
50.96,-0.01,1520,0,-51.5055
51.06,-0.01,1520,0,-52.0903
51.16,-0.01,1520,0,-51.8132
51.26,-0.01,1520,0,-51.6516
51.36,-0.01,1520,0,-51.5056
51.46,-0.01,1520,0,-52.0871
51.56,-0.01,1520,0,-52.0448
51.66,-0.01,1520,0,-51.6805
51.76,-0.01,1520,0,-51.8398
51.86,-0.01,1520,0,-52.0807
51.96,-0.01,1520,0,-51.8934
52.06,-0.01,1520,0,-52.0289
52.16,-0.01,1520,0,-52.0798
52.26,-0.01,1520,0,-52.1468
52.36,-0.01,1520,0,-52.1313
52.46,-0.01,1520,0,-52.0583
52.56,-0.01,1520,0,-52.1528
52.66,-0.01,1520,0,-52.1829
52.76,-0.01,1520,0,-52.3572
52.86,-0.01,1520,0,-52.6379
52.96,-0.01,1520,0,-52.862
53.06,-0.01,1520,0,-52.4925
53.16,-0.01,1520,0,-53.0074
53.26,-0.01,1520,0,-52.8993
53.36,-0.01,1520,0,-53.2861
53.46,-0.01,1520,0,-52.8723
53.56,-0.01,1520,0,-53.1729
53.66,-0.01,1520,0,-53.0465
53.76,-0.01,1520,0,-53.1218
53.86,-0.01,1520,0,-53.2864
53.96,-0.01,1520,0,-53.3948
54.06,-0.01,1520,0,-53.5011
54.16,-0.01,1520,0,-53.8172
54.26,-0.01,1520,0,-53.7953
54.36,-0.01,1520,0,-54.3877
54.46,-0.01,1520,0,-54.8406
54.56,-0.01,1520,0,-54.7152
54.66,-0.01,1520,0,-55.3843
54.76,-0.01,1520,0,-55.341
54.86,-0.01,1520,0,-54.899
54.96,-0.01,1520,0,-54.9159
55.06,-0.01,1520,0,-55.2746
55.16,-0.01,1520,0,-55.2213
55.26,-0.01,1520,0,-55.0966
55.36,-0.01,1520,0,-55.1012
55.46,-0.01,1520,0,-55.2339
55.56,-0.01,1520,0,-55.3263
55.66,-0.01,1520,0,-55.1677
55.76,-0.01,1520,0,-55.2635
55.86,-0.01,1520,0,-55.2187
55.96,-0.01,1520,0,-55.85
56.06,-0.01,1520,0,-56.3988
56.16,-0.01,1520,0,-56.6003
56.26,-0.01,1520,0,-55.9583
56.36,-0.01,1520,0,-56.3383
56.46,-0.01,1520,0,-57.2711
56.56,-0.01,1520,0,-57.5411
56.66,-0.01,1520,0,-58.2644
56.76,0,1520,0,-58.0846
56.86,-0.01,1520,0,-59.2404
56.96,-0.01,1520,0,-58.4392
57.06,-0.01,1520,0,-58.4789
57.16,-0.01,1520,0,-57.1036
57.26,-0.01,1520,0,-57.1001
57.36,-0.01,1520,0,-57.3026
57.46,-0.01,1520,0,-57.6741
57.56,-0.01,1520,0,-57.5103
57.66,-0.01,1520,0,-57.2842
57.76,-0.01,1520,0,-57.4955
57.86,0,1520,0,-58.1208
57.96,-0.01,1520,0,-57.3656
58.06,-0.01,1520,0,-57.759
58.16,-0.01,1520,0,-57.5702
58.26,-0.01,1520,0,-57.6846
58.36,0,1520,0,-57.4862
58.46,-0.01,1520,0,-57.4133
58.56,-0.01,1520,0,-58.2855
58.66,-0.01,1520,0,-58.6792
58.76,-0.01,1520,0,-58.1111
58.86,-0.01,1520,0,-58.6528
58.96,-0.01,1520,0,-60.7434
59.06,-0.01,1520,0,-61.2979
59.16,-0.01,1520,0,-61.1472
59.26,-0.01,1520,0,-61.1149
59.36,-0.01,1520,0,-61.3383
59.46,-0.01,1520,0,-60.2951
59.56,-0.01,1520,0,-60.3951
59.66,-0.01,1520,0,-60.6104
59.76,-0.01,1520,0,-60.6199
59.86,-0.01,1520,0,-62.0835
59.96,-0.01,1520,0,-61.66
0.66,0,1575,0,-0.754364
0.76,0,1575,0,-0.854432
0.86,-0.01,1575,0,-0.958088
0.96,-0.01,1575,0,-1.05737
1.06,-0.01,1575,0,-1.1611
1.16,-0.01,1575,0,-1.26781
1.26,-0.01,1575,0,-1.3702
1.36,-0.01,1575,0,-1.47468
1.46,-0.01,1575,0,-1.57178
1.56,-0.01,1575,0,-1.67706
1.66,-0.01,1575,0,-1.78014
1.76,-0.01,1575,0,-1.87346
1.86,0,1575,0,-1.98035
1.96,-0.01,1575,0,-2.07882
2.06,-0.01,1575,0,-2.18242
2.16,-0.01,1575,0,-2.2878
2.26,-0.01,1575,0,-2.38165
2.36,-0.01,1575,0,-2.48098
2.46,-0.01,1575,0,-2.58075
2.56,-0.01,1575,0,-2.67428
2.66,-0.01,1575,0,-2.77017
2.76,-0.01,1575,0,-2.86784
2.86,-0.01,1575,0,-2.9713
2.96,-0.01,1575,0,-3.07771
3.06,-0.01,1575,0,-3.17577
3.16,-0.01,1575,0,-3.26444
3.26,-0.01,1575,0,-3.37491
3.36,0,1575,0,-3.48866
3.46,-0.01,1575,0,-3.57915
3.56,-0.01,1575,0,-3.67603
3.66,0,1575,0,-3.76526
3.76,-0.01,1575,0,-3.88533
3.86,-0.01,1575,0,-3.98568
3.96,-0.01,1575,0,-4.08581
4.06,0,1575,0,-4.18274
4.16,-0.01,1575,0,-4.26077
4.26,-0.01,1575,0,-4.36978
4.36,-0.01,1575,0,-4.47994
4.46,-0.01,1575,0,-4.56098
4.56,-0.01,1575,0,-4.679
4.66,0,1575,0,-4.76598
4.76,0,1575,0,-4.88495
4.86,-0.01,1575,0,-4.97205
4.96,-0.01,1575,0,-5.08007
5.06,-0.01,1575,0,-5.18153
5.16,-0.01,1575,0,-5.26318
5.26,-0.01,1575,0,-5.38919
5.36,-0.01,1575,0,-5.4872
5.46,-0.01,1575,0,-5.5725
5.56,-0.01,1575,0,-5.69936
5.66,-0.01,1575,0,-5.78925
5.76,-0.01,1575,0,-5.8768
5.86,-0.01,1575,0,-5.99882
5.96,-0.01,1575,0,-6.09153
6.06,-0.01,1575,0,-6.18863
6.16,-0.01,1575,0,-6.28448
6.26,-0.01,1575,0,-6.37867
6.36,-0.01,1575,0,-6.47908
6.46,-0.01,1575,0,-6.58367
6.56,-0.01,1575,0,-6.68267
6.66,-0.01,1575,0,-6.75394
6.76,-0.01,1575,0,-6.85949
6.86,-0.01,1575,0,-6.9645
6.96,-0.01,1575,0,-7.06019
7.06,-0.01,1575,0,-7.14567
7.16,-0.01,1575,0,-7.25538
7.26,-0.01,1575,0,-7.37017
7.36,-0.01,1575,0,-7.44072
7.46,-0.01,1575,0,-7.55593
7.56,-0.01,1575,0,-7.65445
7.66,-0.01,1575,0,-7.75272
7.76,-0.01,1575,0,-7.86585
7.86,-0.01,1575,0,-7.93924
7.96,-0.01,1575,0,-8.05426
8.06,-0.01,1575,0,-8.1323
8.16,-0.01,1575,0,-8.25333
8.26,-0.01,1575,0,-8.38041
8.36,-0.01,1575,0,-8.45595
8.46,-0.01,1575,0,-8.52455
8.56,-0.01,1575,0,-8.64605
8.66,-0.01,1575,0,-8.72029
8.76,-0.01,1575,0,-8.8471
8.86,-0.01,1575,0,-8.91855
8.96,-0.01,1575,0,-9.04012
9.06,-0.01,1575,0,-9.11418
9.16,-0.01,1575,0,-9.22364
9.26,-0.01,1575,0,-9.31666
9.36,0,1575,0,-9.43778
9.46,-0.01,1575,0,-9.51418
9.56,-0.01,1575,0,-9.62182
9.66,-0.01,1575,0,-9.70933
9.76,-0.01,1575,0,-9.82493
9.86,-0.01,1575,0,-9.90522
9.96,-0.01,1575,0,-10.0127
10.06,-0.01,1575,0,-10.1129
10.16,-0.01,1575,0,-10.2318
10.26,-0.01,1575,0,-10.3072
10.36,-0.01,1575,0,-10.3863
10.46,-0.01,1575,0,-10.5089
10.56,-0.01,1575,0,-10.5884
10.66,-0.01,1575,0,-10.6875
10.76,-0.01,1575,0,-10.7829
10.86,-0.01,1575,0,-10.9108
10.96,-0.01,1575,0,-10.9939
11.06,0,1575,0,-11.0719
11.16,-0.01,1575,0,-11.2014
11.26,-0.01,1575,0,-11.2922
11.36,-0.01,1575,0,-11.3757
11.46,-0.01,1575,0,-11.5305
11.56,-0.01,1575,0,-11.6179
11.66,-0.01,1575,0,-11.7109
11.76,-0.01,1575,0,-11.7822
11.86,-0.01,1575,0,-11.8606
11.96,-0.01,1575,0,-12.0207
12.06,-0.01,1575,0,-12.1115
12.16,-0.01,1575,0,-12.2007
12.26,-0.01,1575,0,-12.2686
12.36,-0.01,1575,0,-12.4121
12.46,-0.01,1575,0,-12.5127
12.56,-0.01,1575,0,-12.596
12.66,-0.01,1575,0,-12.6802
12.76,-0.01,1575,0,-12.7444
12.86,-0.01,1575,0,-12.8893
12.96,-0.01,1575,0,-12.9898
13.06,-0.01,1575,0,-13.0769
13.16,-0.01,1575,0,-13.166
13.26,-0.01,1575,0,-13.2285
13.36,-0.01,1575,0,-13.3804
13.46,-0.01,1575,0,-13.4834
13.56,-0.01,1575,0,-13.5691
13.66,-0.01,1575,0,-13.6373
13.76,-0.01,1575,0,-13.7934
13.86,-0.01,1575,0,-13.8717
13.96,-0.01,1575,0,-13.9597
14.06,-0.01,1575,0,-14.0273
14.16,-0.01,1575,0,-14.1685
14.26,-0.01,1575,0,-14.2763
14.36,-0.01,1575,0,-14.3682
14.46,-0.01,1575,0,-14.4395
14.56,-0.01,1575,0,-14.5949
14.66,-0.01,1575,0,-14.662
14.76,-0.01,1575,0,-14.7673
14.86,-0.01,1575,0,-14.8668
14.96,-0.01,1575,0,-14.9454
15.06,-0.01,1575,0,-15.0284
15.16,-0.01,1575,0,-15.1702
15.26,-0.01,1575,0,-15.2868
15.36,-0.01,1575,0,-15.3739
15.46,-0.01,1575,0,-15.4679
15.56,-0.01,1575,0,-15.5521
15.66,-0.01,1575,0,-15.6286
15.76,-0.01,1575,0,-15.7107
15.86,-0.01,1575,0,-15.8601
15.96,-0.01,1575,0,-15.959
16.06,-0.01,1575,0,-16.0612
16.16,-0.01,1575,0,-16.1493
16.26,-0.01,1575,0,-16.2372
16.36,-0.01,1575,0,-16.3401
16.46,-0.01,1575,0,-16.428
16.56,-0.01,1575,0,-16.5176
16.66,-0.01,1575,0,-16.6138
16.76,-0.01,1575,0,-16.7109
16.86,-0.01,1575,0,-16.8068
16.96,-0.01,1575,0,-16.9014
17.06,-0.01,1575,0,-16.9866
17.16,-0.01,1575,0,-17.0799
17.26,-0.01,1575,0,-17.1784
17.36,-0.01,1575,0,-17.2737
17.46,-0.01,1575,0,-17.3688
17.56,-0.01,1575,0,-17.4598
17.66,-0.01,1575,0,-17.6443
17.76,-0.01,1575,0,-17.7249
17.86,-0.01,1575,0,-17.8493
17.96,-0.01,1575,0,-17.9303
18.06,-0.01,1575,0,-18.0425
18.16,-0.01,1575,0,-18.1272
18.26,-0.01,1575,0,-18.2341
18.36,-0.01,1575,0,-18.3178
18.46,-0.01,1575,0,-18.3994
18.56,-0.01,1575,0,-18.5011
18.66,-0.01,1575,0,-18.603
18.76,-0.01,1575,0,-18.6968
18.86,-0.01,1575,0,-18.783
18.96,0,1575,0,-18.8743
19.06,-0.01,1575,0,-18.9783
19.16,-0.01,1575,0,-19.0686
19.26,0,1575,0,-19.1591
19.36,-0.01,1575,0,-19.2561
19.46,-0.01,1575,0,-19.3486
19.56,-0.01,1575,0,-19.5209
19.66,-0.01,1575,0,-19.5847
19.76,-0.01,1575,0,-19.6902
19.86,-0.01,1575,0,-19.7712
19.96,-0.01,1575,0,-19.8951
20.06,-0.01,1575,0,-19.9875
20.16,-0.01,1575,0,-20.0849
20.26,-0.01,1575,0,-20.1699
20.36,-0.01,1575,0,-20.2626
20.46,-0.01,1575,0,-20.3588
20.56,-0.01,1575,0,-20.4426
20.66,-0.01,1575,0,-20.5956
20.76,-0.01,1575,0,-20.657
20.86,-0.01,1575,0,-20.779
20.96,-0.01,1575,0,-20.885
21.06,-0.01,1575,0,-20.9791
21.16,-0.01,1575,0,-21.0451
21.26,0,1575,0,-21.1368
21.36,-0.01,1575,0,-21.2652
21.46,-0.01,1575,0,-21.3638
21.56,-0.01,1575,0,-21.4503
21.66,-0.01,1575,0,-21.5076
21.76,-0.01,1575,0,-21.5933
21.86,-0.01,1575,0,-21.7108
21.96,-0.01,1575,0,-21.8085
22.06,-0.01,1575,0,-21.9028
22.16,-0.01,1575,0,-22.0075
22.26,-0.01,1575,0,-22.1376
22.36,-0.01,1575,0,-22.2092
22.46,-0.01,1575,0,-22.3459
22.56,-0.01,1575,0,-22.4315
22.66,-0.01,1575,0,-22.5467
22.76,-0.01,1575,0,-22.5597
22.86,-0.01,1575,0,-22.6509
22.96,-0.01,1575,0,-22.7375
23.06,-0.01,1575,0,-22.8413
23.16,-0.01,1575,0,-22.9542
23.26,-0.01,1575,0,-23.0416
23.36,-0.01,1575,0,-23.1746
23.46,-0.01,1575,0,-23.269
23.56,-0.01,1575,0,-23.417
23.66,-0.01,1575,0,-23.4897
23.76,-0.01,1575,0,-23.5483
23.86,0,1575,0,-23.6539
23.96,-0.01,1575,0,-23.7464
24.06,-0.01,1575,0,-23.8457
24.16,-0.01,1575,0,-23.9597
24.26,-0.01,1575,0,-24.0736
24.36,-0.01,1575,0,-24.1388
24.46,-0.01,1575,0,-24.2728
24.56,-0.01,1575,0,-24.312
24.66,-0.01,1575,0,-24.4228
24.76,-0.01,1575,0,-24.5163
24.86,-0.01,1575,0,-24.6404
24.96,-0.01,1575,0,-24.7587
25.06,-0.01,1575,0,-24.8868
25.16,-0.01,1575,0,-24.9785
25.26,-0.01,1575,0,-25.009
25.36,-0.01,1575,0,-25.1174
25.46,-0.01,1575,0,-25.2062
25.56,0,1575,0,-25.3043
25.66,-0.01,1575,0,-25.4245
25.76,-0.01,1575,0,-25.4784
25.86,-0.01,1575,0,-25.59
25.96,-0.01,1575,0,-25.621
26.06,-0.01,1575,0,-25.7298
26.16,-0.01,1575,0,-25.8755
26.26,-0.01,1575,0,-25.9501
26.36,-0.01,1575,0,-26.0606
26.46,-0.01,1575,0,-26.1783
26.56,-0.01,1575,0,-26.3305
26.66,-0.01,1575,0,-26.3521
26.76,-0.01,1575,0,-26.4816
26.86,-0.01,1575,0,-26.5878
26.96,-0.01,1575,0,-26.7127
27.06,-0.01,1575,0,-26.8097
27.16,-0.01,1575,0,-26.8898
27.26,-0.01,1575,0,-26.9853
27.36,-0.01,1575,0,-27.0516
27.46,-0.01,1575,0,-27.1087
27.56,-0.01,1575,0,-27.2159
27.66,-0.01,1575,0,-27.3176
27.76,-0.01,1575,0,-27.447
27.86,-0.01,1575,0,-27.597
27.96,-0.01,1575,0,-27.7163
28.06,0,1575,0,-27.8289
28.16,-0.01,1575,0,-27.9125
28.26,-0.01,1575,0,-27.9817
28.36,-0.01,1575,0,-28.1037
28.46,-0.01,1575,0,-28.1181
28.56,-0.01,1575,0,-28.2427
28.66,-0.01,1575,0,-28.3113
28.76,-0.01,1575,0,-28.398
28.86,-0.01,1575,0,-28.522
28.96,-0.01,1575,0,-28.6155
29.06,0,1575,0,-28.7556
29.16,-0.01,1575,0,-28.8348
29.26,-0.01,1575,0,-28.9369
29.36,-0.01,1575,0,-29.0646
29.46,-0.01,1575,0,-29.193
29.56,-0.01,1575,0,-29.241
29.66,0,1575,0,-29.4045
29.76,-0.01,1575,0,-29.427
29.86,-0.01,1575,0,-29.5597
29.96,-0.01,1575,0,-29.7244
30.06,-0.01,1575,0,-29.8478
30.16,-0.01,1575,0,-29.9463
30.26,-0.01,1575,0,-29.9539
30.36,-0.01,1575,0,-30.0582
30.46,-0.01,1575,0,-30.1673
30.56,-0.01,1575,0,-30.263
30.66,-0.01,1575,0,-30.3153
30.76,-0.01,1575,0,-30.4437
30.86,-0.01,1575,0,-30.4567
30.96,-0.01,1575,0,-30.5627
31.06,-0.01,1575,0,-30.6848
31.16,-0.01,1575,0,-30.8238
31.26,-0.01,1575,0,-30.836
31.36,-0.01,1575,0,-30.9687
31.46,-0.01,1575,0,-30.9644
31.56,-0.01,1575,0,-31.1456
31.66,-0.01,1575,0,-31.3057
31.76,-0.01,1575,0,-31.4287
31.86,-0.01,1575,0,-31.6038
31.96,-0.01,1575,0,-31.6936
32.06,-0.01,1575,0,-31.7432
32.16,-0.01,1575,0,-31.8665
32.26,-0.01,1575,0,-31.9587
32.36,-0.01,1575,0,-32.0842
32.46,-0.01,1575,0,-32.1395
32.56,-0.01,1575,0,-32.1742
32.66,-0.01,1575,0,-32.2724
32.76,-0.01,1575,0,-32.4098
32.86,-0.01,1575,0,-32.5139
32.96,-0.01,1575,0,-32.6297
33.06,-0.01,1575,0,-32.692
33.16,-0.01,1575,0,-32.697
33.26,-0.01,1575,0,-32.8171
33.36,-0.01,1575,0,-32.9389
33.46,-0.01,1575,0,-33.0182
33.56,-0.01,1575,0,-33.211
33.66,-0.01,1575,0,-33.3071
33.76,-0.01,1575,0,-33.3543
33.86,-0.01,1575,0,-33.4693
33.96,0,1575,0,-33.5183
34.06,-0.01,1575,0,-33.6071
34.16,-0.01,1575,0,-33.6364
34.26,-0.01,1575,0,-33.7067
34.36,-0.01,1575,0,-33.8551
34.46,-0.01,1575,0,-33.9848
34.56,-0.01,1575,0,-34.1187
34.66,-0.01,1575,0,-34.2069
34.76,-0.01,1575,0,-34.2933
34.86,-0.01,1575,0,-34.3245
34.96,-0.01,1575,0,-34.4646
35.06,-0.01,1575,0,-34.6582
35.16,-0.01,1575,0,-34.7244
35.26,-0.01,1575,0,-34.8222
35.36,-0.01,1575,0,-34.8435
35.46,-0.01,1575,0,-34.9608
35.56,-0.01,1575,0,-35.0447
35.66,-0.01,1575,0,-35.0628
35.76,-0.01,1575,0,-35.1965
35.86,-0.01,1575,0,-35.3377
35.96,-0.01,1575,0,-35.4579
36.06,-0.01,1575,0,-35.6965
36.16,-0.01,1575,0,-35.7368
36.26,-0.01,1575,0,-35.8897
36.36,-0.01,1575,0,-35.968
36.46,-0.01,1575,0,-36.1075
36.56,-0.01,1575,0,-36.2053
36.66,-0.01,1575,0,-36.1769
36.76,-0.01,1575,0,-36.3647
36.86,-0.01,1575,0,-36.3827
36.96,-0.01,1575,0,-36.5329
37.06,-0.01,1575,0,-36.6379
37.16,-0.01,1575,0,-36.7752
37.26,-0.01,1575,0,-36.8553
37.36,-0.01,1575,0,-36.9303
37.46,-0.01,1575,0,-37.0326
37.56,-0.01,1575,0,-37.0553
37.66,-0.01,1575,0,-37.0752
37.76,-0.01,1575,0,-37.2188
37.86,-0.01,1575,0,-37.3312
37.96,-0.01,1575,0,-37.3752
38.06,-0.01,1575,0,-37.5075
38.16,-0.01,1575,0,-37.6043
38.26,-0.01,1575,0,-37.6788
38.36,-0.01,1575,0,-37.862
38.46,-0.01,1575,0,-37.8751
38.56,-0.01,1575,0,-38.1186
38.66,0,1575,0,-38.275
38.76,-0.01,1575,0,-38.298
38.86,-0.01,1575,0,-38.5368
38.96,-0.01,1575,0,-38.6028
39.06,-0.01,1575,0,-38.6356
39.16,-0.01,1575,0,-38.6485
39.26,-0.01,1575,0,-38.8227
39.36,-0.01,1575,0,-38.8752
39.46,-0.01,1575,0,-39.0063
39.56,-0.01,1575,0,-38.8883
39.66,-0.01,1575,0,-39.1725
39.76,-0.01,1575,0,-39.367
39.86,-0.01,1575,0,-39.3957
39.96,-0.01,1575,0,-39.6306
40.06,-0.01,1575,0,-39.6026
40.16,-0.01,1575,0,-39.6425
40.26,-0.01,1575,0,-39.707
40.36,-0.01,1575,0,-39.8303
40.46,-0.01,1575,0,-39.8939
40.56,-0.01,1575,0,-40.0311
40.66,-0.01,1575,0,-40.0891
40.76,-0.01,1575,0,-40.2407
40.86,-0.01,1575,0,-40.3981
40.96,-0.01,1575,0,-40.5678
41.06,-0.01,1575,0,-40.6121
41.16,-0.01,1575,0,-40.6466
41.26,-0.01,1575,0,-40.7162
41.36,-0.01,1575,0,-40.923
41.46,-0.01,1575,0,-40.7929
41.56,-0.01,1575,0,-40.9055
41.66,-0.01,1575,0,-41.178
41.76,-0.01,1575,0,-41.3834
41.86,-0.01,1575,0,-41.6593
41.96,-0.01,1575,0,-41.6176
42.06,-0.01,1575,0,-41.7057
42.16,-0.01,1575,0,-41.7731
42.26,-0.01,1575,0,-41.9329
42.36,-0.01,1575,0,-41.8673
42.46,-0.01,1575,0,-41.7793
42.56,-0.01,1575,0,-41.778
42.66,-0.01,1575,0,-41.9771
42.76,-0.01,1575,0,-42.2624
42.86,-0.01,1575,0,-42.42
42.96,-0.01,1575,0,-42.573
43.06,-0.01,1575,0,-42.6063
43.16,-0.01,1575,0,-42.666
43.26,-0.01,1575,0,-42.5213
43.36,-0.01,1575,0,-42.7192
43.46,-0.01,1575,0,-42.8473
43.56,-0.01,1575,0,-43.0285
43.66,-0.01,1575,0,-42.9489
43.76,-0.01,1575,0,-43.0527
43.86,-0.01,1575,0,-43.1902
43.96,-0.01,1575,0,-43.0867
44.06,-0.01,1575,0,-43.147
44.16,-0.01,1575,0,-43.2263
44.26,-0.01,1575,0,-43.2456
44.36,-0.01,1575,0,-43.3365
44.46,-0.01,1575,0,-43.6629
44.56,-0.01,1575,0,-43.9532
44.66,-0.01,1575,0,-44.1711
44.76,-0.01,1575,0,-44.1966
44.86,-0.01,1575,0,-44.4324
44.96,-0.01,1575,0,-44.3728
45.06,-0.01,1575,0,-44.5271
45.16,-0.01,1575,0,-44.6936
45.26,-0.01,1575,0,-44.8053
45.36,-0.01,1575,0,-44.8907
45.46,-0.01,1575,0,-44.8437
45.56,-0.01,1575,0,-44.9486
45.66,-0.01,1575,0,-44.9169
45.76,-0.01,1575,0,-44.9666
45.86,-0.01,1575,0,-45.0369
45.96,-0.01,1575,0,-45.2722
46.06,-0.01,1575,0,-45.2373
46.16,-0.01,1575,0,-45.4043
46.26,-0.01,1575,0,-45.764
46.36,-0.01,1575,0,-46.0144
46.46,-0.01,1575,0,-46.2094
46.56,-0.01,1575,0,-45.9636
46.66,-0.01,1575,0,-46.0586
46.76,-0.01,1575,0,-46.0187
46.86,-0.01,1575,0,-46.5981
46.96,-0.01,1575,0,-46.5881
47.06,-0.01,1575,0,-46.4395
47.16,-0.01,1575,0,-46.4868
47.26,-0.01,1575,0,-46.4583
47.36,-0.01,1575,0,-46.6072
47.46,-0.01,1575,0,-46.7629
47.56,-0.01,1575,0,-46.6934
47.66,-0.01,1575,0,-46.6509
47.76,-0.01,1575,0,-46.6649
47.86,-0.01,1575,0,-46.6391
47.96,-0.01,1575,0,-46.8388
48.06,-0.01,1575,0,-46.8062
48.16,-0.01,1575,0,-46.984
48.26,-0.01,1575,0,-47.2087
48.36,-0.01,1575,0,-47.2348
48.46,-0.01,1575,0,-47.6187
48.56,-0.01,1575,0,-47.8775
48.66,-0.01,1575,0,-47.7498
48.76,-0.01,1575,0,-47.7742
48.86,-0.01,1575,0,-48.1426
48.96,-0.01,1575,0,-48.2186
49.06,-0.01,1575,0,-48.4065
49.16,-0.01,1575,0,-48.674
49.26,-0.01,1575,0,-48.6635
49.36,-0.01,1575,0,-48.9174
49.46,-0.01,1575,0,-48.6889
49.56,-0.01,1575,0,-48.7554
49.66,-0.01,1575,0,-49.2982
49.76,-0.01,1575,0,-49.2453
49.86,-0.01,1575,0,-49.2795
49.96,-0.01,1575,0,-49.3611
50.06,-0.01,1575,0,-49.0646
50.16,-0.01,1575,0,-49.0635
50.26,-0.01,1575,0,-49.6318
50.36,-0.01,1575,0,-50.3119
50.46,-0.01,1575,0,-50.1175
50.56,-0.01,1575,0,-50.1238
50.66,-0.01,1575,0,-49.5107
50.76,-0.01,1575,0,-49.8827
50.86,-0.01,1575,0,-49.9292
50.96,-0.01,1575,0,-49.9027
51.06,-0.01,1575,0,-50.0094
51.16,-0.01,1575,0,-49.8484
51.26,-0.01,1575,0,-50.5688
51.36,-0.01,1575,0,-50.5252
51.46,-0.01,1575,0,-50.5143
51.56,-0.01,1575,0,-50.5037
51.66,-0.01,1575,0,-50.9586
51.76,-0.01,1575,0,-50.8106
51.86,-0.01,1575,0,-51.0222
51.96,-0.01,1575,0,-50.9141
52.06,-0.01,1575,0,-51.2663
52.16,-0.01,1575,0,-51.3536
52.26,-0.01,1575,0,-51.2969
52.36,-0.01,1575,0,-51.3622
52.46,-0.01,1575,0,-51.3524
52.56,-0.01,1575,0,-51.2617
52.66,-0.01,1575,0,-51.3776
52.76,-0.01,1575,0,-51.5371
52.86,-0.01,1575,0,-51.7352
52.96,-0.01,1575,0,-51.9984
53.06,-0.01,1575,0,-52.0708
53.16,-0.01,1575,0,-52.3686
53.26,-0.01,1575,0,-52.5088
53.36,-0.01,1575,0,-52.5335
53.46,-0.01,1575,0,-52.6517
53.56,-0.01,1575,0,-53.3427
53.66,-0.01,1575,0,-53.3263
53.76,-0.01,1575,0,-53.3993
53.86,-0.01,1575,0,-53.0988
53.96,-0.01,1575,0,-54.0185
54.06,-0.01,1575,0,-53.8709
54.16,-0.01,1575,0,-54.2186
54.26,-0.01,1575,0,-54.4366
54.36,-0.01,1575,0,-54.35
54.46,-0.01,1575,0,-54.7216
54.56,-0.01,1575,0,-54.6817
54.66,-0.01,1575,0,-54.9199
54.76,-0.01,1575,0,-54.7837
54.86,-0.01,1575,0,-54.3244
54.96,-0.01,1575,0,-54.3647
55.06,-0.01,1575,0,-54.594
55.16,-0.01,1575,0,-54.6997
55.26,-0.01,1575,0,-54.6236
55.36,-0.01,1575,0,-55.2781
55.46,-0.01,1575,0,-55.5204
55.56,-0.01,1575,0,-55.3535
55.66,-0.01,1575,0,-55.4835
55.76,-0.01,1575,0,-55.6144
55.86,-0.01,1575,0,-55.6009
55.96,-0.01,1575,0,-54.809
56.06,-0.01,1575,0,-55.2905
56.16,-0.01,1575,0,-54.158
56.26,-0.01,1575,0,-53.7352
56.36,-0.01,1575,0,-54.8355
56.46,-0.01,1575,0,-54.8948
56.56,-0.01,1575,0,-54.7902
56.66,-0.01,1575,0,-55.2051
56.76,-0.01,1575,0,-55.6737
56.86,-0.01,1575,0,-56.3554
56.96,-0.01,1575,0,-56.114
57.06,-0.01,1575,0,-56.2246
57.16,-0.01,1575,0,-56.8836
57.26,-0.01,1575,0,-56.8973
57.36,-0.01,1575,0,-56.7567
57.46,-0.01,1575,0,-56.043
57.56,-0.01,1575,0,-56.8687
57.66,-0.01,1575,0,-56.3191
57.76,-0.01,1575,0,-56.2461
57.86,-0.01,1575,0,-55.7672
57.96,-0.01,1575,0,-56.6897
58.06,-0.01,1575,0,-56.561
58.16,-0.01,1575,0,-56.2153
58.26,-0.01,1575,0,-56.3646
58.36,-0.01,1575,0,-56.311
58.46,-0.01,1575,0,-56.9449
58.56,-0.01,1575,0,-57.4546
58.66,-0.01,1575,0,-57.1731
58.76,-0.01,1575,0,-56.8717
58.86,-0.01,1575,0,-56.6411
58.96,-0.01,1575,0,-58.0261
59.06,-0.01,1575,0,-59.3343
59.16,-0.01,1575,0,-58.9963
59.26,-0.01,1575,0,-59.0415
59.36,-0.01,1575,0,-59.1464
59.46,-0.01,1575,0,-59.4376
59.56,-0.01,1575,0,-59.55
59.66,-0.01,1575,0,-59.7351
59.76,-0.01,1575,0,-59.6146
59.86,-0.01,1575,0,-58.5647
59.96,-0.01,1575,0,-58.1444
