SWITCH CHANNEL,T100 POWER,T100 WAVELENGTH,POWER METER POWER
1,1.19,1465,-0.00757549
1,1.37,1466,0.165441
1,1.31,1467,0.10981
1,1.29,1468,0.0873087
1,1.35,1469,0.141323
1,1.25,1470,0.0475975
1,1.4,1471,0.189284
1,1.28,1472,0.0687062
1,1.28,1473,0.0707876
1,1.41,1474,0.196147
1,1.23,1475,0.00319523
1,1.37,1476,0.143122
1,1.39,1477,0.158625
1,1.26,1478,0.0322997
1,1.36,1479,0.124816
1,1.35,1480,0.110237
1,1.38,1481,0.143496
1,1.3,1482,0.0564589
1,1.25,1483,0.00764987
1,1.45,1484,0.204114
1,1.28,1485,0.03414
1,1.25,1486,0.0147799
1,1.37,1487,0.132827
1,1.23,1488,-0.0115972
1,1.35,1489,0.107938
1,1.24,1490,0.00169776
1,1.22,1491,-0.0190996
1,1.34,1492,0.104772
1,1.12,1493,-0.105032
1,1.22,1494,-0.00287642
1,1.23,1495,0.0106012
1,1.04,1496,-0.175372
1,1.15,1497,-0.0598507
1,1.13,1498,-0.0790147
1,1.1,1499,-0.111731
1,1.08,1500,-0.11601
1,1.02,1501,-0.172204
1,1.19,1502,0.000529807
1,1.11,1503,-0.0795968
1,1.03,1504,-0.148791
1,1.18,1505,0.000286625
1,1.08,1506,-0.0951414
1,1.13,1507,-0.0433616
1,1.17,1508,-0.00802666
1,1.08,1509,-0.096325
1,1.2,1510,0.0225248
1,1.08,1511,-0.101474
1,1.12,1512,-0.0629018
1,1.31,1513,0.128777
1,1.11,1514,-0.0778941
1,1.17,1515,-0.0216675
1,1.3,1516,0.102575
1,1.17,1517,-0.0270695
1,1.31,1518,0.117125
1,1.26,1519,0.0688772
1,1.23,1520,0.0277106
1,1.36,1521,0.154985
1,1.18,1522,-0.0294777
1,1.24,1523,0.0236566
1,1.4,1524,0.187845
1,1.18,1525,-0.0433445
1,1.26,1526,0.0365566
1,1.31,1527,0.0785058
1,1.2,1528,-0.0356679
1,1.35,1529,0.09761
1,1.24,1530,-0.0149463
1,1.24,1531,-0.0248562
1,1.37,1532,0.09538
1,1.15,1533,-0.121205
1,1.22,1534,-0.0729077
1,1.37,1535,0.0749259
1,1.17,1536,-0.125635
1,1.25,1537,-0.0420371
1,1.25,1538,-0.0436634
1,1.13,1539,-0.162746
1,1.25,1540,-0.0484991
1,1.14,1541,-0.153795
1,1.18,1542,-0.114191
1,1.39,1543,0.0943985
1,1.22,1544,-0.0833298
1,1.25,1545,-0.0457999
1,1.4,1546,0.0973806
1,1.3,1547,-0.0150326
1,1.37,1548,0.0517408
1,1.4,1549,0.0795293
1,1.38,1550,0.0547952
1,1.51,1551,0.178494
1,1.38,1552,0.0496417
1,1.3,1553,-0.0405573
1,1.46,1554,0.121076
1,1.33,1555,-0.0146927
1,1.25,1556,-0.0931269
1,1.35,1557,-0.00379565
1,1.31,1558,-0.0420046
1,1.25,1559,-0.101432
1,1.29,1560,-0.0634068
1,1.21,1561,-0.149416
1,1.29,1562,-0.0696487
1,1.36,1563,0.00332976
1,1.18,1564,-0.176311
1,1.31,1565,-0.048272
1,1.45,1566,0.0891641
1,1.27,1567,-0.0989292
1,1.39,1568,0.0192573
1,1.44,1569,0.0661192
1,1.36,1570,-0.0190739
1,1.46,1571,0.081891
1,1.34,1572,-0.0482035
1,1.3,1573,-0.0826977
1,1.47,1574,0.0803224
1,1.35,1575,-0.0437757
SWITCH CHANNEL,T100 POWER,T100 WAVELENGTH,POWER METER POWER
2,1.06,1465,-0.0186041
2,1.21,1466,0.123411
2,1.18,1467,0.101621
2,1.14,1468,0.0667137
2,1.19,1469,0.109983
2,1.11,1470,0.0253797
2,1.25,1471,0.159492
2,1.13,1472,0.0399445
2,1.13,1473,0.043304
2,1.28,1474,0.185491
2,1.07,1475,-0.025947
2,1.21,1476,0.110411
2,1.25,1477,0.150356
2,1.11,1478,0.0108611
2,1.19,1479,0.096922
2,1.17,1480,0.0719069
2,1.22,1481,0.12116
2,1.16,1482,0.0524102
2,1.07,1483,-0.0280026
2,1.27,1484,0.168709
2,1.12,1485,0.0286728
2,1.08,1486,-0.00324539
2,1.18,1487,0.098803
2,1.06,1488,-0.0264424
2,1.17,1489,0.0887812
2,1.04,1490,-0.033908
2,1.02,1491,-0.0548484
2,1.13,1492,0.0649471
2,0.92,1493,-0.142175
2,1.02,1494,-0.0350807
2,1.03,1495,-0.0207637
2,0.87,1496,-0.187706
2,0.97,1497,-0.0813514
2,0.93,1498,-0.114918
2,0.91,1499,-0.136309
2,0.89,1500,-0.142155
2,0.81,1501,-0.215965
2,0.99,1502,-0.0369624
2,0.92,1503,-0.108848
2,0.84,1504,-0.181931
2,0.99,1505,-0.0285643
2,0.89,1506,-0.128529
2,0.94,1507,-0.0765162
2,0.97,1508,-0.0536022
2,0.89,1509,-0.134503
2,1.02,1510,-0.0114331
2,0.89,1511,-0.141668
2,0.93,1512,-0.102856
2,1.13,1513,0.0964718
2,0.93,1514,-0.107933
2,0.99,1515,-0.0508989
2,1.12,1516,0.0663032
2,0.99,1517,-0.0584207
2,1.13,1518,0.0808041
2,1.08,1519,0.0274387
2,1.07,1520,0.00951798
2,1.18,1521,0.117932
2,1,1522,-0.0754245
2,1.07,1523,-0.00682465
2,1.23,1524,0.153162
2,1.02,1525,-0.0637819
2,1.09,1526,0.00630138
2,1.13,1527,0.0393808
2,1.03,1528,-0.0674259
2,1.18,1529,0.072744
2,1.05,1530,-0.0560682
2,1.07,1531,-0.0533845
2,1.19,1532,0.0649171
2,0.97,1533,-0.164107
2,1.03,1534,-0.112409
2,1.18,1535,0.0316789
2,0.98,1536,-0.165643
2,1.07,1537,-0.078209
2,1.06,1538,-0.091317
2,0.95,1539,-0.189772
2,1.07,1540,-0.0823945
2,0.96,1541,-0.192172
2,0.98,1542,-0.163102
2,1.21,1543,0.0578004
2,1.02,1544,-0.128591
2,1.07,1545,-0.0756159
2,1.22,1546,0.0650669
2,1.11,1547,-0.0510136
2,1.18,1548,0.0194346
2,1.21,1549,0.0381067
2,1.18,1550,0.0131349
2,1.31,1551,0.142647
2,1.18,1552,0.010038
2,1.09,1553,-0.0837093
2,1.26,1554,0.0878109
2,1.14,1555,-0.0425971
2,1.06,1556,-0.125532
2,1.14,1557,-0.0442144
2,1.11,1558,-0.080881
2,1.06,1559,-0.132988
2,1.09,1560,-0.0927232
2,1.01,1561,-0.183788
2,1.08,1562,-0.112218
2,1.15,1563,-0.0349017
2,0.98,1564,-0.210912
2,1.09,1565,-0.101761
2,1.25,1566,0.0558972
2,1.07,1567,-0.130101
2,1.19,1568,-0.0166257
2,1.24,1569,0.0339288
2,1.16,1570,-0.0541531
2,1.25,1571,0.0410159
2,1.13,1572,-0.0837708
2,1.09,1573,-0.121199
2,1.27,1574,0.0503887
2,1.14,1575,-0.0797396
