T100 Wavelength,OSA Wavelength,T100 Power Level,OSA Power Level,,,,
1465,1465.46,-5.88,-8.42,0.46,,4.76,-210
1465.1,1465.55,-5.9,-8.47,0.45,,,
1465.2,1465.66,-5.88,-8.55,0.46,,,
1465.3,1465.75,-5.88,-8.47,0.45,,,
1465.4,1465.85,-5.9,-8.48,0.45,,,
1465.5,1465.94,-5.9,-8.47,0.44,,,
1465.6,1466.04,-5.9,-8.44,0.44,,,
1465.7,1466.14,-5.9,-8.46,0.44,,,
1465.8,1466.23,-5.9,-8.44,0.43,,,
1465.9,1466.33,-5.9,-8.45,0.43,,,
1466,1466.42,-5.9,-8.53,0.42,,,
1466.1,1466.53,-5.9,-8.56,0.43,,,
1466.2,1466.62,-5.9,-8.51,0.42,,,
1466.3,1466.72,-5.9,-8.43,0.42,,,
1466.4,1466.82,-5.9,-8.45,0.42,,,
1466.5,1466.92,-5.9,-8.47,0.42,,,
1466.6,1467.02,-5.9,-8.46,0.42,,,
1466.7,1467.12,-5.88,-8.48,0.42,,,
1466.8,1467.22,-5.9,-8.49,0.42,,,
1466.9,1467.32,-5.9,-8.47,0.42,,,
1467,1467.42,-5.9,-8.46,0.42,,,
1467.1,1467.52,-5.9,-8.61,0.42,,,
1467.2,1467.61,-5.9,-8.51,0.41,,,
1467.3,1467.72,-5.9,-8.52,0.42,,,
1467.4,1467.82,-5.9,-8.49,0.42,,,
1467.5,1467.92,-5.9,-8.5,0.42,,,
1467.6,1468.03,-5.9,-8.53,0.43,,,
1467.7,1468.13,-5.88,-8.45,0.43,,,
1467.8,1468.23,-5.88,-8.46,0.43,,,
1467.9,1468.33,-5.88,-8.51,0.43,,,
1468,1468.43,-5.9,-8.54,0.43,,,
1468.1,1468.52,-5.9,-8.51,0.42,,,
1468.2,1468.62,-5.9,-8.48,0.42,,,
1468.3,1468.72,-5.9,-8.53,0.42,,,
1468.4,1468.82,-5.88,-8.43,0.42,,,
1468.5,1468.93,-5.9,-8.46,0.43,,,
1468.6,1469.03,-5.88,-8.47,0.43,,,
1468.7,1469.14,-5.9,-8.62,0.44,,,
1468.8,1469.23,-5.9,-8.48,0.43,,,
1468.9,1469.33,-5.9,-8.47,0.43,,,
1469,1469.43,-5.88,-8.52,0.43,,,
1469.1,1469.54,-5.88,-8.53,0.44,,,
1469.2,1469.64,-5.9,-8.5,0.44,,,
1469.3,1469.74,-5.9,-8.49,0.44,,,
1469.4,1469.83,-5.9,-8.54,0.43,,,
1469.5,1469.94,-5.88,-8.5,0.44,,,
1469.6,1470.05,-5.9,-8.65,0.45,,,
1469.7,1470.15,-5.9,-8.57,0.45,,,
1469.8,1470.24,-5.88,-8.52,0.44,,,
1469.9,1470.35,-5.9,-8.48,0.45,,,
1470,1470.45,-5.88,-8.5,0.45,,,
1470.1,1470.56,-5.88,-8.56,0.46,,,
1470.2,1470.67,-5.9,-8.5,0.47,,,
1470.3,1470.76,-5.9,-8.46,0.46,,,
1470.4,1470.86,-5.88,-8.51,0.46,,,
1470.5,1470.95,-5.9,-8.53,0.45,,,
1470.6,1471.06,-5.88,-8.61,0.46,,,
1470.7,1471.16,-5.9,-8.57,0.46,,,
1470.8,1471.26,-5.9,-8.57,0.46,,,
1470.9,1471.36,-5.9,-8.51,0.46,,,
1471,1471.46,-5.9,-8.57,0.46,,,
1471.1,1471.57,-5.9,-8.7,0.47,,,
1471.2,1471.67,-5.88,-8.48,0.47,,,
1471.3,1471.77,-5.9,-8.56,0.47,,,
1471.4,1471.88,-5.9,-8.62,0.48,,,
1471.5,1471.97,-5.88,-8.58,0.47,,,
1471.6,1472.08,-5.9,-8.54,0.48,,,
1471.7,1472.18,-5.9,-8.5,0.48,,,
1471.8,1472.29,-5.9,-8.54,0.49,,,
1471.9,1472.38,-5.88,-8.45,0.48,,,
1472,1472.48,-5.9,-8.54,0.48,,,
1472.1,1472.59,-5.9,-8.56,0.49,,,
1472.2,1472.69,-5.9,-8.55,0.49,,,
1472.3,1472.79,-5.9,-8.54,0.49,,,
1472.4,1472.9,-5.88,-8.54,0.5,,,
1472.5,1473.01,-5.9,-8.53,0.51,,,
1472.6,1473.11,-5.9,-8.68,0.51,,,
1472.7,1473.21,-5.9,-8.57,0.51,,,
1472.8,1473.31,-5.9,-8.56,0.51,,,
1472.9,1473.4,-5.88,-8.6,0.5,,,
1473,1473.5,-5.9,-8.62,0.5,,,
1473.1,1473.6,-5.88,-8.52,0.5,,,
1473.2,1473.7,-5.9,-8.61,0.5,,,
1473.3,1473.8,-5.9,-8.55,0.5,,,
1473.4,1473.9,-5.9,-8.54,0.5,,,
1473.5,1474.01,-5.9,-8.54,0.51,,,
1473.6,1474.11,-5.9,-8.53,0.51,,,
1473.7,1474.21,-5.88,-8.54,0.51,,,
1473.8,1474.31,-5.9,-8.54,0.51,,,
1473.9,1474.41,-5.9,-8.62,0.51,,,
1474,1474.51,-5.9,-8.55,0.51,,,
1474.1,1474.61,-5.9,-8.49,0.51,,,
1474.2,1474.71,-5.9,-8.51,0.51,,,
1474.3,1474.81,-5.9,-8.59,0.51,,,
1474.4,1474.91,-5.9,-8.51,0.51,,,
1474.5,1475.01,-5.9,-8.51,0.51,,,
1474.6,1475.11,-5.9,-8.58,0.51,,,
1474.7,1475.21,-5.88,-8.56,0.51,,,
1474.8,1475.31,-5.9,-8.57,0.51,,,
1474.9,1475.43,-5.9,-8.67,0.53,,,
1475,1475.53,-5.9,-8.54,0.53,,,
1475.1,1475.63,-5.9,-8.58,0.53,,,
1475.2,1475.73,-5.9,-8.53,0.53,,,
1475.3,1475.83,-5.88,-8.56,0.53,,,
1475.4,1475.93,-5.9,-8.59,0.53,,,
1475.5,1476.03,-5.9,-8.58,0.53,,,
1475.6,1476.13,-5.9,-8.59,0.53,,,
1475.7,1476.22,-5.9,-8.61,0.52,,,
1475.8,1476.33,-5.9,-8.6,0.53,,,
1475.9,1476.43,-5.9,-8.67,0.53,,,
1476,1476.53,-5.9,-8.62,0.53,,,
1476.1,1476.63,-5.9,-8.55,0.53,,,
1476.2,1476.74,-5.9,-8.56,0.54,,,
1476.3,1476.84,-5.88,-8.54,0.54,,,
1476.4,1476.94,-5.88,-8.54,0.54,,,
1476.5,1474,-5.9,-210,-2.5,,,
1476.6,1477.22,-5.9,-8.59,0.62,,,
1476.7,1477.31,-5.9,-8.58,0.61,,,
1476.8,1477.42,-5.9,-8.52,0.62,,,
1476.9,1477.51,-5.88,-8.59,0.61,,,
1477,1477.61,-5.9,-8.61,0.61,,,
1477.1,1477.71,-5.9,-8.71,0.61,,,
1477.2,1477.82,-5.9,-8.62,0.62,,,
1477.3,1477.93,-5.88,-8.59,0.63,,,
1477.4,1478.04,-5.9,-8.63,0.64,,,
1477.5,1478.14,-5.9,-8.62,0.64,,,
1477.6,1478.24,-5.88,-8.58,0.64,,,
1477.7,1478.35,-5.9,-8.64,0.65,,,
1477.8,1478.45,-5.9,-8.66,0.65,,,
1477.9,1478.55,-5.88,-8.64,0.65,,,
1478,1478.66,-5.9,-8.66,0.66,,,
1478.1,1478.76,-5.9,-8.57,0.66,,,
1478.2,1478.87,-5.9,-8.62,0.67,,,
1478.3,1478.97,-5.9,-8.57,0.67,,,
1478.4,1479.08,-5.88,-8.61,0.68,,,
1478.5,1479.2,-5.9,-8.59,0.7,,,
1478.6,1479.32,-5.88,-8.62,0.72,,,
1478.7,1479.43,-5.9,-8.64,0.73,,,
1478.8,1479.54,-5.9,-8.55,0.74,,,
1478.9,1479.66,-5.9,-8.6,0.76,,,
1479,1479.76,-5.9,-8.67,0.76,,,
1479.1,1479.87,-5.9,-8.65,0.77,,,
1479.2,1479.98,-5.9,-8.59,0.78,,,
1479.3,1480.09,-5.88,-8.65,0.79,,,
1479.4,1480.2,-5.9,-8.59,0.8,,,
1479.5,1480.31,-5.9,-8.64,0.81,,,
1479.6,1480.42,-5.9,-8.64,0.82,,,
1479.7,1480.53,-5.9,-8.65,0.83,,,
1479.8,1480.65,-5.9,-8.63,0.85,,,
1479.9,1480.76,-5.9,-8.56,0.86,,,
1480,1480.87,-5.9,-8.59,0.87,,,
1480.1,1480.98,-5.9,-8.6,0.88,,,
1480.2,1481.1,-5.91,-8.59,0.9,,,
1480.3,1481.21,-5.9,-8.64,0.91,,,
1480.4,1481.32,-5.9,-8.79,0.92,,,
1480.5,1481.43,-5.9,-8.61,0.93,,,
1480.6,1481.54,-5.9,-8.57,0.94,,,
1480.7,1481.65,-5.9,-8.73,0.95,,,
1480.8,1481.76,-5.9,-8.62,0.96,,,
1480.9,1481.87,-5.9,-8.67,0.97,,,
1481,1481.98,-5.9,-8.6,0.98,,,
1481.1,1482.09,-5.9,-8.69,0.99,,,
1481.2,1482.2,-5.9,-8.54,1,,,
1481.3,1482.3,-5.9,-8.62,1,,,
1481.4,1482.41,-5.9,-8.63,1.01,,,
1481.5,1482.51,-5.9,-8.58,1.01,,,
1481.6,1482.62,-5.88,-8.56,1.02,,,
1481.7,1482.73,-5.88,-8.79,1.03,,,
1481.8,1482.84,-5.9,-8.67,1.04,,,
1481.9,1482.95,-5.9,-8.63,1.05,,,
1482,1483.06,-5.9,-8.64,1.06,,,
1482.1,1483.17,-5.9,-8.62,1.07,,,
1482.2,1483.26,-5.9,-8.72,1.06,,,
1482.3,1483.37,-5.9,-8.6,1.07,,,
1482.4,1483.48,-5.9,-8.61,1.08,,,
1482.5,1483.58,-5.9,-8.62,1.08,,,
1482.6,1483.68,-5.88,-8.63,1.08,,,
1482.7,1483.78,-5.88,-8.63,1.08,,,
1482.8,1483.88,-5.9,-8.61,1.08,,,
1482.9,1483.98,-5.88,-8.65,1.08,,,
1483,1484.09,-5.9,-8.75,1.09,,,
1483.1,1484.19,-5.88,-8.62,1.09,,,
1483.2,1484.29,-5.9,-8.67,1.09,,,
1483.3,1484.39,-5.88,-8.66,1.09,,,
1483.4,1484.49,-5.9,-8.57,1.09,,,
1483.5,1484.59,-5.9,-8.68,1.09,,,
1483.6,1484.7,-5.9,-8.74,1.1,,,
1483.7,1484.79,-5.88,-8.57,1.09,,,
1483.8,1484.9,-5.9,-8.64,1.1,,,
1483.9,1485,-5.9,-8.63,1.1,,,
1484,1485.1,-5.9,-8.56,1.1,,,
1484.1,1485.2,-5.88,-8.73,1.1,,,
1484.2,1485.3,-5.9,-8.65,1.1,,,
1484.3,1485.41,-5.9,-8.73,1.11,,,
1484.4,1485.51,-5.9,-8.74,1.11,,,
1484.5,1485.62,-5.9,-8.75,1.12,,,
1484.6,1485.73,-5.9,-8.62,1.13,,,
1484.7,1485.84,-5.9,-8.7,1.14,,,
1484.8,1485.94,-5.9,-8.59,1.14,,,
1484.9,1486.03,-5.9,-8.65,1.13,,,
1485,1486.13,-5.9,-8.66,1.13,,,
1485.1,1486.22,-5.9,-8.72,1.12,,,
1485.2,1486.33,-5.88,-8.63,1.13,,,
1485.3,1486.43,-5.9,-8.7,1.13,,,
1485.4,1486.53,-5.9,-8.7,1.13,,,
1485.5,1486.63,-5.9,-8.68,1.13,,,
1485.6,1486.73,-5.9,-8.68,1.13,,,
1485.7,1486.83,-5.9,-8.67,1.13,,,
1485.8,1486.94,-5.9,-8.68,1.14,,,
1485.9,1487.03,-5.9,-8.69,1.13,,,
1486,1487.13,-5.9,-8.77,1.13,,,
1486.1,1487.23,-5.9,-8.81,1.13,,,
1486.2,1487.33,-5.9,-8.77,1.13,,,
1486.3,1487.43,-5.9,-8.61,1.13,,,
1486.4,1487.53,-5.9,-8.63,1.13,,,
1486.5,1487.63,-5.9,-8.77,1.13,,,
1486.6,1487.73,-5.9,-8.71,1.13,,,
1486.7,1487.83,-5.9,-8.68,1.13,,,
1486.8,1487.93,-5.9,-8.63,1.13,,,
1486.9,1488.04,-5.9,-8.68,1.14,,,
1487,1488.14,-5.9,-8.66,1.14,,,
1487.1,1488.25,-5.9,-8.6,1.15,,,
1487.2,1488.35,-5.9,-8.7,1.15,,,
1487.3,1488.45,-5.9,-8.68,1.15,,,
1487.4,1488.54,-5.88,-8.68,1.14,,,
1487.5,1488.64,-5.9,-8.67,1.14,,,
1487.6,1488.73,-5.9,-8.79,1.13,,,
1487.7,1488.84,-5.9,-8.62,1.14,,,
1487.8,1488.93,-5.9,-8.74,1.13,,,
1487.9,1489.04,-5.9,-8.68,1.14,,,
1488,1489.14,-5.9,-8.75,1.14,,,
1488.1,1489.24,-5.9,-8.68,1.14,,,
1488.2,1489.34,-5.9,-8.71,1.14,,,
1488.3,1489.45,-5.9,-8.75,1.15,,,
1488.4,1489.55,-5.9,-8.65,1.15,,,
1488.5,1489.65,-5.9,-8.73,1.15,,,
1488.6,1489.76,-5.9,-8.59,1.16,,,
1488.7,1489.87,-5.88,-8.68,1.17,,,
1488.8,1489.96,-5.88,-8.72,1.16,,,
1488.9,1490.07,-5.9,-8.74,1.17,,,
1489,1490.17,-5.9,-8.71,1.17,,,
1489.1,1490.28,-5.9,-8.78,1.18,,,
1489.2,1490.38,-5.9,-8.71,1.18,,,
1489.3,1490.49,-5.9,-8.72,1.19,,,
1489.4,1490.59,-5.9,-8.7,1.19,,,
1489.5,1490.7,-5.9,-8.69,1.2,,,
1489.6,1490.8,-5.9,-8.69,1.2,,,
1489.7,1490.91,-5.9,-8.71,1.21,,,
1489.8,1491.01,-5.88,-8.68,1.21,,,
1489.9,1491.11,-5.9,-8.77,1.21,,,
1490,1491.21,-5.9,-8.7,1.21,,,
1490.1,1491.32,-5.88,-8.78,1.22,,,
1490.2,1491.42,-5.9,-8.71,1.22,,,
1490.3,1491.52,-5.9,-8.69,1.22,,,
1490.4,1491.63,-5.9,-8.73,1.23,,,
1490.5,1491.73,-5.9,-8.74,1.23,,,
1490.6,1491.83,-5.88,-8.69,1.23,,,
1490.7,1491.93,-5.9,-8.59,1.23,,,
1490.8,1492.03,-5.9,-8.79,1.23,,,
1490.9,1492.13,-5.88,-8.7,1.23,,,
1491,1492.24,-5.9,-8.65,1.24,,,
1491.1,1492.34,-5.88,-8.75,1.24,,,
1491.2,1492.45,-5.9,-8.64,1.25,,,
1491.3,1492.55,-5.9,-8.66,1.25,,,
1491.4,1492.64,-5.9,-8.78,1.24,,,
1491.5,1492.73,-5.9,-8.74,1.23,,,
1491.6,1492.83,-5.9,-8.81,1.23,,,
1491.7,1492.93,-5.9,-8.71,1.23,,,
1491.8,1493.03,-5.9,-8.68,1.23,,,
1491.9,1493.13,-5.9,-8.71,1.23,,,
1492,1493.23,-5.88,-8.62,1.23,,,
1492.1,1493.33,-5.9,-8.75,1.23,,,
1492.2,1493.43,-5.88,-8.61,1.23,,,
1492.3,1493.52,-5.9,-8.91,1.22,,,
1492.4,1493.62,-5.9,-8.77,1.22,,,
1492.5,1493.73,-5.88,-8.65,1.23,,,
1492.6,1493.82,-5.9,-8.67,1.22,,,
1492.7,1493.91,-5.9,-8.6,1.21,,,
1492.8,1494.01,-5.9,-8.7,1.21,,,
1492.9,1494.11,-5.9,-8.85,1.21,,,
1493,1494.2,-5.9,-8.68,1.2,,,
1493.1,1494.3,-5.9,-8.67,1.2,,,
1493.2,1494.39,-5.9,-8.73,1.19,,,
1493.3,1494.48,-5.91,-8.8,1.18,,,
1493.4,1494.59,-5.9,-8.82,1.19,,,
1493.5,1494.69,-5.9,-8.77,1.19,,,
1493.6,1494.79,-5.9,-8.74,1.19,,,
1493.7,1494.88,-5.9,-8.73,1.18,,,
1493.8,1494.97,-5.9,-8.8,1.17,,,
1493.9,1495.07,-5.9,-8.84,1.17,,,
1494,1495.15,-5.9,-8.59,1.15,,,
1494.1,1495.24,-5.9,-8.64,1.14,,,
1494.2,1495.33,-5.9,-8.67,1.13,,,
1494.3,1495.41,-5.9,-8.85,1.11,,,
1494.4,1495.5,-5.9,-8.75,1.1,,,
1494.5,1495.59,-5.9,-8.81,1.09,,,
1494.6,1495.67,-5.9,-8.75,1.07,,,
1494.7,1495.75,-5.9,-8.78,1.05,,,
1494.8,1495.84,-5.9,-8.69,1.04,,,
1494.9,1495.92,-5.9,-8.75,1.02,,,
1495,1495.99,-5.9,-8.79,0.99,,,
1495.1,1496.08,-5.9,-8.63,0.98,,,
1495.2,1496.17,-5.9,-8.68,0.97,,,
1495.3,1496.25,-5.9,-8.76,0.95,,,
1495.4,1496.34,-5.9,-8.73,0.94,,,
1495.5,1496.44,-5.9,-8.83,0.94,,,
1495.6,1496.53,-5.9,-8.7,0.93,,,
1495.7,1496.62,-5.9,-8.72,0.92,,,
1495.8,1496.72,-5.88,-8.73,0.92,,,
1495.9,1496.82,-5.9,-8.75,0.92,,,
1496,1496.92,-5.9,-8.67,0.92,,,
1496.1,1497.02,-5.9,-8.67,0.92,,,
1496.2,1497.11,-5.9,-8.78,0.91,,,
1496.3,1497.21,-5.9,-8.69,0.91,,,
1496.4,1497.31,-5.9,-8.66,0.91,,,
1496.5,1497.41,-5.9,-8.79,0.91,,,
1496.6,1497.52,-5.9,-8.79,0.92,,,
1496.7,1497.61,-5.9,-8.78,0.91,,,
1496.8,1497.72,-5.88,-8.72,0.92,,,
1496.9,1497.84,-5.9,-8.81,0.94,,,
1497,1497.95,-5.88,-8.72,0.95,,,
1497.1,1498.06,-5.9,-8.79,0.96,,,
1497.2,1498.17,-5.9,-8.77,0.97,,,
1497.3,1498.28,-5.9,-8.69,0.98,,,
1497.4,1498.39,-5.9,-8.76,0.99,,,
1497.5,1498.51,-5.9,-8.7,1.01,,,
1497.6,1498.63,-5.88,-8.76,1.03,,,
1497.7,1498.74,-5.9,-8.72,1.04,,,
1497.8,1498.86,-5.9,-8.8,1.06,,,
1497.9,1498.98,-5.9,-8.79,1.08,,,
1498,1499.1,-5.9,-8.74,1.1,,,
1498.1,1499.22,-5.9,-8.76,1.12,,,
1498.2,1499.35,-5.88,-8.72,1.15,,,
1498.3,1499.47,-5.9,-8.82,1.17,,,
1498.4,1499.58,-5.9,-8.68,1.18,,,
1498.5,1499.7,-5.9,-8.71,1.2,,,
1498.6,1499.81,-5.9,-8.74,1.21,,,
1498.7,1499.92,-5.9,-8.72,1.22,,,
1498.8,1500.03,-5.9,-8.81,1.23,,,
1498.9,1500.16,-5.9,-8.85,1.26,,,
1499,1500.26,-5.88,-8.81,1.26,,,
1499.1,1500.36,-5.9,-8.72,1.26,,,
1499.2,1500.46,-5.9,-8.81,1.26,,,
1499.3,1500.56,-5.9,-8.75,1.26,,,
1499.4,1500.67,-5.9,-8.84,1.27,,,
1499.5,1500.77,-5.88,-8.83,1.27,,,
1499.6,1500.88,-5.9,-8.86,1.28,,,
1499.7,1500.98,-5.88,-8.71,1.28,,,
1499.8,1501.08,-5.9,-8.8,1.28,,,
1499.9,1501.19,-5.9,-8.79,1.29,,,
1500,1501.29,-5.9,-8.78,1.29,,,
1500.1,1501.39,-5.9,-8.82,1.29,,,
1500.2,1501.5,-5.9,-8.7,1.3,,,
1500.3,1501.6,-5.9,-8.77,1.3,,,
1500.4,1501.7,-5.9,-8.79,1.3,,,
1500.5,1501.8,-5.9,-8.84,1.3,,,
1500.6,1501.91,-5.9,-8.88,1.31,,,
1500.7,1502.01,-5.9,-8.92,1.31,,,
1500.8,1502.12,-5.88,-8.82,1.32,,,
1500.9,1502.22,-5.88,-8.84,1.32,,,
1501,1502.32,-5.9,-8.75,1.32,,,
1501.1,1502.42,-5.9,-8.88,1.32,,,
1501.2,1502.52,-5.9,-8.75,1.32,,,
1501.3,1502.63,-5.88,-8.78,1.33,,,
1501.4,1502.74,-5.9,-8.84,1.34,,,
1501.5,1502.84,-5.9,-8.84,1.34,,,
1501.6,1502.94,-5.9,-8.8,1.34,,,
1501.7,1503.04,-5.9,-8.77,1.34,,,
1501.8,1503.14,-5.9,-8.75,1.34,,,
1501.9,1503.25,-5.9,-8.86,1.35,,,
1502,1503.36,-5.9,-8.72,1.36,,,
1502.1,1503.47,-5.9,-8.89,1.37,,,
1502.2,1503.56,-5.88,-8.75,1.36,,,
1502.3,1503.66,-5.9,-8.72,1.36,,,
1502.4,1503.76,-5.9,-8.73,1.36,,,
1502.5,1503.86,-5.9,-8.77,1.36,,,
1502.6,1503.97,-5.88,-8.81,1.37,,,
1502.7,1504.07,-5.9,-8.76,1.37,,,
1502.8,1504.17,-5.9,-8.79,1.37,,,
1502.9,1504.3,-5.9,-8.88,1.4,,,
1503,1504.41,-5.9,-8.74,1.41,,,
1503.1,1504.51,-5.88,-8.81,1.41,,,
1503.2,1504.62,-5.9,-8.82,1.42,,,
1503.3,1504.72,-5.88,-8.79,1.42,,,
1503.4,1504.81,-5.9,-8.84,1.41,,,
1503.5,1504.92,-5.9,-8.77,1.42,,,
1503.6,1505.03,-5.9,-8.82,1.43,,,
1503.7,1505.13,-5.9,-8.75,1.43,,,
1503.8,1505.23,-5.9,-8.83,1.43,,,
1503.9,1505.32,-5.9,-8.87,1.42,,,
1504,1505.43,-5.9,-8.82,1.43,,,
1504.1,1505.54,-5.9,-8.81,1.44,,,
1504.2,1505.64,-5.9,-8.8,1.44,,,
1504.3,1505.74,-5.9,-8.8,1.44,,,
1504.4,1505.85,-5.9,-8.8,1.45,,,
1504.5,1505.95,-5.9,-8.75,1.45,,,
1504.6,1506.05,-5.9,-8.81,1.45,,,
1504.7,1506.15,-5.9,-8.78,1.45,,,
1504.8,1506.24,-5.9,-8.79,1.44,,,
1504.9,1506.35,-5.9,-8.81,1.45,,,
1505,1506.45,-5.9,-8.81,1.45,,,
1505.1,1506.56,-5.9,-8.84,1.46,,,
1505.2,1506.66,-5.9,-8.78,1.46,,,
1505.3,1506.76,-5.88,-8.8,1.46,,,
1505.4,1506.87,-5.9,-8.81,1.47,,,
1505.5,1506.97,-5.9,-8.85,1.47,,,
1505.6,1507.07,-5.9,-8.71,1.47,,,
1505.7,1507.17,-5.9,-8.84,1.47,,,
1505.8,1507.28,-5.9,-8.78,1.48,,,
1505.9,1507.38,-5.9,-8.87,1.48,,,
1506,1507.48,-5.9,-8.8,1.48,,,
1506.1,1507.59,-5.9,-8.88,1.49,,,
1506.2,1507.68,-5.9,-8.77,1.48,,,
1506.3,1507.79,-5.9,-8.82,1.49,,,
1506.4,1507.89,-5.9,-8.82,1.49,,,
1506.5,1507.99,-5.9,-8.8,1.49,,,
1506.6,1508.1,-5.9,-8.8,1.5,,,
1506.7,1508.21,-5.9,-8.86,1.51,,,
1506.8,1508.32,-5.9,-8.84,1.52,,,
1506.9,1508.42,-5.9,-8.84,1.52,,,
1507,1508.52,-5.9,-8.89,1.52,,,
1507.1,1508.61,-5.9,-8.85,1.51,,,
1507.2,1508.71,-5.9,-8.85,1.51,,,
1507.3,1508.82,-5.9,-8.84,1.52,,,
1507.4,1508.93,-5.9,-8.92,1.53,,,
1507.5,1509.03,-5.9,-8.78,1.53,,,
1507.6,1509.13,-5.9,-8.84,1.53,,,
1507.7,1509.23,-5.88,-8.82,1.53,,,
1507.8,1509.34,-5.9,-8.82,1.54,,,
1507.9,1509.44,-5.88,-9.01,1.54,,,
1508,1509.55,-5.9,-8.83,1.55,,,
1508.1,1509.66,-5.88,-8.96,1.56,,,
1508.2,1509.76,-5.88,-8.82,1.56,,,
1508.3,1509.86,-5.9,-8.86,1.56,,,
1508.4,1509.97,-5.88,-8.83,1.57,,,
1508.5,1510.07,-5.9,-8.96,1.57,,,
1508.6,1510.15,-5.9,-8.89,1.55,,,
1508.7,1510.24,-5.9,-8.83,1.54,,,
1508.8,1510.33,-5.9,-8.9,1.53,,,
1508.9,1510.42,-5.9,-8.88,1.52,,,
1509,1510.52,-5.9,-8.93,1.52,,,
1509.1,1510.61,-5.9,-8.95,1.51,,,
1509.2,1510.71,-5.9,-8.85,1.51,,,
1509.3,1510.81,-5.9,-8.86,1.51,,,
1509.4,1510.9,-5.88,-8.88,1.5,,,
1509.5,1511,-5.9,-8.89,1.5,,,
1509.6,1511.11,-5.9,-8.85,1.51,,,
1509.7,1511.22,-5.9,-8.92,1.52,,,
1509.8,1511.34,-5.9,-8.9,1.54,,,
1509.9,1511.45,-5.9,-8.9,1.55,,,
1510,1511.56,-5.9,-8.8,1.56,,,
1510.1,1511.68,-5.9,-8.82,1.58,,,
1510.2,1511.78,-5.9,-8.89,1.58,,,
1510.3,1511.89,-5.9,-8.81,1.59,,,
1510.4,1512.01,-5.9,-8.89,1.61,,,
1510.5,1512.11,-5.9,-8.79,1.61,,,
1510.6,1512.22,-5.9,-8.83,1.62,,,
1510.7,1512.33,-5.9,-8.78,1.63,,,
1510.8,1512.44,-5.9,-8.84,1.64,,,
1510.9,1512.54,-5.9,-8.87,1.64,,,
1511,1512.65,-5.9,-8.81,1.65,,,
1511.1,1512.76,-5.9,-8.82,1.66,,,
1511.2,1512.87,-5.9,-8.78,1.67,,,
1511.3,1512.98,-5.9,-8.79,1.68,,,
1511.4,1513.09,-5.9,-8.82,1.69,,,
1511.5,1513.2,-5.9,-8.87,1.7,,,
1511.6,1513.31,-5.9,-8.8,1.71,,,
1511.7,1513.44,-5.9,-8.92,1.74,,,
1511.8,1513.55,-5.88,-8.84,1.75,,,
1511.9,1513.65,-5.9,-8.79,1.75,,,
1512,1513.76,-5.9,-8.83,1.76,,,
1512.1,1513.88,-5.9,-8.85,1.78,,,
1512.2,1514,-5.9,-8.78,1.8,,,
1512.3,1514.12,-5.9,-8.82,1.82,,,
1512.4,1514.24,-5.88,-8.83,1.84,,,
1512.5,1514.35,-5.88,-8.82,1.85,,,
1512.6,1514.46,-5.9,-8.79,1.86,,,
1512.7,1514.57,-5.9,-8.82,1.87,,,
1512.8,1514.68,-5.9,-8.87,1.88,,,
1512.9,1514.78,-5.88,-8.89,1.88,,,
1513,1514.89,-5.9,-8.78,1.89,,,
1513.1,1514.99,-5.88,-8.82,1.89,,,
1513.2,1515.09,-5.88,-8.98,1.89,,,
1513.3,1515.19,-5.88,-8.84,1.89,,,
1513.4,1515.3,-5.9,-8.77,1.9,,,
1513.5,1515.41,-5.9,-8.79,1.91,,,
1513.6,1515.51,-5.9,-8.82,1.91,,,
1513.7,1515.61,-5.9,-8.87,1.91,,,
1513.8,1515.72,-5.88,-8.87,1.92,,,
1513.9,1515.82,-5.9,-8.83,1.92,,,
1514,1515.94,-5.9,-8.79,1.94,,,
1514.1,1516.05,-5.88,-8.94,1.95,,,
1514.2,1516.15,-5.9,-8.78,1.95,,,
1514.3,1516.25,-5.88,-8.86,1.95,,,
1514.4,1516.34,-5.88,-8.87,1.94,,,
1514.5,1516.44,-5.9,-8.77,1.94,,,
1514.6,1516.54,-5.9,-8.83,1.94,,,
1514.7,1516.65,-5.9,-8.81,1.95,,,
1514.8,1516.75,-5.9,-8.87,1.95,,,
1514.9,1516.85,-5.9,-8.91,1.95,,,
1515,1516.96,-5.88,-8.8,1.96,,,
1515.1,1517.07,-5.91,-8.76,1.97,,,
1515.2,1517.18,-5.9,-8.82,1.98,,,
1515.3,1517.28,-5.9,-8.78,1.98,,,
1515.4,1517.39,-5.9,-8.81,1.99,,,
1515.5,1517.49,-5.9,-8.83,1.99,,,
1515.6,1517.59,-5.9,-8.88,1.99,,,
1515.7,1517.7,-5.9,-8.82,2,,,
1515.8,1517.8,-5.9,-8.9,2,,,
1515.9,1517.91,-5.9,-8.79,2.01,,,
1516,1518.01,-5.9,-8.86,2.01,,,
1516.1,1518.12,-5.9,-8.73,2.02,,,
1516.2,1518.23,-5.9,-8.81,2.03,,,
1516.3,1518.33,-5.9,-8.8,2.03,,,
1516.4,1518.44,-5.9,-8.8,2.04,,,
1516.5,1518.55,-5.9,-8.83,2.05,,,
1516.6,1518.65,-5.9,-8.76,2.05,,,
1516.7,1518.74,-5.9,-8.88,2.04,,,
1516.8,1518.85,-5.9,-8.79,2.05,,,
1516.9,1518.95,-5.88,-8.83,2.05,,,
1517,1519.06,-5.88,-8.91,2.06,,,
1517.1,1519.16,-5.9,-8.86,2.06,,,
1517.2,1519.26,-5.9,-8.85,2.06,,,
1517.3,1519.37,-5.9,-8.89,2.07,,,
1517.4,1519.47,-5.9,-8.79,2.07,,,
1517.5,1519.58,-5.9,-8.91,2.08,,,
1517.6,1519.68,-5.88,-8.83,2.08,,,
1517.7,1519.78,-5.88,-8.83,2.08,,,
1517.8,1519.88,-5.88,-8.86,2.08,,,
1517.9,1519.98,-5.9,-8.83,2.08,,,
1518,1520.08,-5.88,-8.89,2.08,,,
1518.1,1520.19,-5.88,-8.88,2.09,,,
1518.2,1520.29,-5.9,-8.79,2.09,,,
1518.3,1520.39,-5.9,-8.78,2.09,,,
1518.4,1520.5,-5.9,-8.94,2.1,,,
1518.5,1520.6,-5.9,-8.92,2.1,,,
1518.6,1520.7,-5.9,-8.79,2.1,,,
1518.7,1520.8,-5.9,-8.79,2.1,,,
1518.8,1520.9,-5.88,-8.78,2.1,,,
1518.9,1521,-5.9,-8.88,2.1,,,
1519,1521.11,-5.9,-8.81,2.11,,,
1519.1,1521.2,-5.88,-8.78,2.1,,,
1519.2,1521.31,-5.88,-8.82,2.11,,,
1519.3,1521.4,-5.88,-8.85,2.1,,,
1519.4,1521.51,-5.88,-8.78,2.11,,,
1519.5,1521.62,-5.9,-8.77,2.12,,,
1519.6,1521.72,-5.88,-8.75,2.12,,,
1519.7,1521.81,-5.9,-8.84,2.11,,,
1519.8,1521.91,-5.88,-8.82,2.11,,,
1519.9,1522.01,-5.9,-8.87,2.11,,,
1520,1522.11,-5.88,-8.75,2.11,,,
1520.1,1522.21,-5.9,-8.76,2.11,,,
1520.2,1522.31,-5.88,-8.76,2.11,,,
1520.3,1522.4,-5.9,-8.79,2.1,,,
1520.4,1522.5,-5.88,-8.81,2.1,,,
1520.5,1522.6,-5.88,-8.74,2.1,,,
1520.6,1522.7,-5.9,-8.8,2.1,,,
1520.7,1522.8,-5.9,-8.78,2.1,,,
1520.8,1522.9,-5.88,-8.73,2.1,,,
1520.9,1522.99,-5.9,-8.74,2.09,,,
1521,1523.09,-5.88,-8.8,2.09,,,
1521.1,1523.18,-5.9,-8.97,2.08,,,
1521.2,1523.28,-5.88,-8.82,2.08,,,
1521.3,1523.38,-5.9,-8.75,2.08,,,
1521.4,1523.48,-5.9,-8.71,2.08,,,
1521.5,1523.57,-5.9,-8.76,2.07,,,
1521.6,1523.67,-5.88,-8.76,2.07,,,
1521.7,1523.77,-5.88,-8.81,2.07,,,
1521.8,1523.88,-5.9,-8.89,2.08,,,
1521.9,1523.98,-5.9,-8.81,2.08,,,
1522,1524.07,-5.88,-8.71,2.07,,,
1522.1,1524.16,-5.88,-8.74,2.06,,,
1522.2,1524.26,-5.88,-8.74,2.06,,,
1522.3,1524.36,-5.88,-8.8,2.06,,,
1522.4,1524.45,-5.9,-8.72,2.05,,,
1522.5,1524.52,-5.9,-8.89,2.02,,,
1522.6,1524.61,-5.88,-8.75,2.01,,,
1522.7,1524.7,-5.9,-8.91,2,,,
1522.8,1524.8,-5.9,-8.93,2,,,
1522.9,1524.9,-5.9,-8.72,2,,,
1523,1524.99,-5.88,-8.75,1.99,,,
1523.1,1525.09,-5.88,-8.89,1.99,,,
1523.2,1525.18,-5.9,-8.74,1.98,,,
1523.3,1525.28,-5.9,-8.85,1.98,,,
1523.4,1525.37,-5.88,-8.74,1.97,,,
1523.5,1525.46,-5.9,-8.76,1.96,,,
1523.6,1525.55,-5.9,-8.89,1.95,,,
1523.7,1525.64,-5.9,-8.79,1.94,,,
1523.8,1525.74,-5.9,-8.87,1.94,,,
1523.9,1525.84,-5.9,-8.91,1.94,,,
1524,1525.92,-5.88,-8.79,1.92,,,
1524.1,1526.02,-5.88,-8.81,1.92,,,
1524.2,1526.13,-5.9,-8.78,1.93,,,
1524.3,1526.22,-5.9,-8.79,1.92,,,
1524.4,1526.32,-5.9,-8.84,1.92,,,
1524.5,1526.41,-5.88,-8.74,1.91,,,
1524.6,1526.5,-5.9,-8.83,1.9,,,
1524.7,1526.61,-5.9,-8.8,1.91,,,
1524.8,1526.7,-5.9,-8.79,1.9,,,
1524.9,1526.8,-5.9,-8.74,1.9,,,
1525,1526.9,-5.9,-8.74,1.9,,,
1525.1,1527,-5.9,-8.73,1.9,,,
1525.2,1527.1,-5.88,-8.79,1.9,,,
1525.3,1527.2,-5.9,-8.71,1.9,,,
1525.4,1527.3,-5.9,-8.74,1.9,,,
1525.5,1527.39,-5.9,-8.85,1.89,,,
1525.6,1527.49,-5.88,-8.78,1.89,,,
1525.7,1527.59,-5.9,-8.73,1.89,,,
1525.8,1527.69,-5.9,-8.81,1.89,,,
1525.9,1527.78,-5.9,-8.74,1.88,,,
1526,1527.88,-5.9,-8.79,1.88,,,
1526.1,1527.98,-5.9,-8.7,1.88,,,
1526.2,1528.08,-5.9,-8.74,1.88,,,
1526.3,1528.18,-5.9,-8.86,1.88,,,
1526.4,1528.27,-5.9,-8.75,1.87,,,
1526.5,1528.38,-5.9,-8.77,1.88,,,
1526.6,1528.48,-5.9,-8.74,1.88,,,
1526.7,1528.58,-5.9,-8.77,1.88,,,
1526.8,1528.67,-5.9,-8.86,1.87,,,
1526.9,1528.77,-5.9,-8.84,1.87,,,
1527,1528.87,-5.9,-8.74,1.87,,,
1527.1,1528.97,-5.9,-8.73,1.87,,,
1527.2,1529.07,-5.88,-8.82,1.87,,,
1527.3,1529.17,-5.9,-8.78,1.87,,,
1527.4,1529.27,-5.9,-8.81,1.87,,,
1527.5,1529.37,-5.88,-8.75,1.87,,,
1527.6,1529.47,-5.9,-8.88,1.87,,,
1527.7,1529.57,-5.9,-8.83,1.87,,,
1527.8,1529.67,-5.9,-8.87,1.87,,,
1527.9,1529.77,-5.9,-8.79,1.87,,,
1528,1529.86,-5.9,-8.73,1.86,,,
1528.1,1529.96,-5.9,-8.8,1.86,,,
1528.2,1530.06,-5.9,-8.76,1.86,,,
1528.3,1530.16,-5.9,-8.82,1.86,,,
1528.4,1530.26,-5.9,-8.74,1.86,,,
1528.5,1530.36,-5.9,-8.79,1.86,,,
1528.6,1530.46,-5.9,-8.75,1.86,,,
1528.7,1530.56,-5.9,-8.77,1.86,,,
1528.8,1530.66,-5.9,-8.93,1.86,,,
1528.9,1530.77,-5.88,-8.75,1.87,,,
1529,1530.87,-5.9,-8.76,1.87,,,
1529.1,1530.96,-5.88,-8.91,1.86,,,
1529.2,1531.06,-5.88,-8.88,1.86,,,
1529.3,1531.15,-5.9,-8.73,1.85,,,
1529.4,1531.25,-5.88,-8.75,1.85,,,
1529.5,1531.35,-5.9,-8.89,1.85,,,
1529.6,1531.45,-5.88,-8.9,1.85,,,
1529.7,1531.55,-5.9,-8.81,1.85,,,
1529.8,1531.65,-5.88,-8.78,1.85,,,
1529.9,1531.75,-5.9,-8.77,1.85,,,
1530,1531.86,-5.88,-8.83,1.86,,,
1530.1,1531.96,-5.9,-8.86,1.86,,,
1530.2,1532.06,-5.88,-8.85,1.86,,,
1530.3,1532.15,-5.9,-8.78,1.85,,,
1530.4,1532.26,-5.9,-8.74,1.86,,,
1530.5,1532.36,-5.9,-8.72,1.86,,,
1530.6,1532.46,-5.88,-8.71,1.86,,,
1530.7,1532.56,-5.9,-8.79,1.86,,,
1530.8,1532.66,-5.88,-8.8,1.86,,,
1530.9,1532.76,-5.88,-8.75,1.86,,,
1531,1532.86,-5.9,-8.81,1.86,,,
1531.1,1532.96,-5.9,-8.95,1.86,,,
1531.2,1533.06,-5.9,-8.84,1.86,,,
1531.3,1533.16,-5.9,-8.75,1.86,,,
1531.4,1533.26,-5.88,-8.73,1.86,,,
1531.5,1533.36,-5.9,-8.74,1.86,,,
1531.6,1533.46,-5.9,-8.72,1.86,,,
1531.7,1533.56,-5.9,-8.71,1.86,,,
1531.8,1533.66,-5.9,-8.72,1.86,,,
1531.9,1533.75,-5.9,-8.8,1.85,,,
1532,1533.85,-5.9,-8.81,1.85,,,
1532.1,1533.96,-5.9,-8.78,1.86,,,
1532.2,1534.06,-5.88,-8.82,1.86,,,
1532.3,1534.16,-5.88,-8.74,1.86,,,
1532.4,1534.27,-5.9,-8.76,1.87,,,
1532.5,1534.37,-5.9,-8.71,1.87,,,
1532.6,1534.46,-5.88,-8.77,1.86,,,
1532.7,1534.55,-5.88,-8.81,1.85,,,
1532.8,1534.65,-5.9,-8.76,1.85,,,
1532.9,1534.75,-5.9,-8.73,1.85,,,
1533,1534.85,-5.9,-8.68,1.85,,,
1533.1,1534.95,-5.88,-8.73,1.85,,,
1533.2,1535.06,-5.9,-8.8,1.86,,,
1533.3,1535.15,-5.9,-8.75,1.85,,,
1533.4,1535.25,-5.88,-8.68,1.85,,,
1533.5,1535.35,-5.9,-8.77,1.85,,,
1533.6,1535.45,-5.9,-8.8,1.85,,,
1533.7,1535.55,-5.88,-8.76,1.85,,,
1533.8,1535.65,-5.9,-8.71,1.85,,,
1533.9,1535.75,-5.9,-8.78,1.85,,,
1534,1535.84,-5.9,-8.72,1.84,,,
1534.1,1535.94,-5.9,-8.76,1.84,,,
1534.2,1536.04,-5.9,-8.73,1.84,,,
1534.3,1536.14,-5.9,-8.82,1.84,,,
1534.4,1536.24,-5.88,-8.77,1.84,,,
1534.5,1536.34,-5.9,-8.75,1.84,,,
1534.6,1536.44,-5.9,-8.7,1.84,,,
1534.7,1536.54,-5.88,-8.71,1.84,,,
1534.8,1536.64,-5.9,-8.7,1.84,,,
1534.9,1536.74,-5.9,-8.79,1.84,,,
1535,1536.84,-5.9,-8.77,1.84,,,
1535.1,1536.93,-5.9,-8.69,1.83,,,
1535.2,1537.03,-5.88,-8.69,1.83,,,
1535.3,1537.13,-5.9,-8.75,1.83,,,
1535.4,1537.24,-5.9,-8.76,1.84,,,
1535.5,1537.34,-5.9,-8.77,1.84,,,
1535.6,1537.44,-5.9,-8.92,1.84,,,
1535.7,1537.54,-5.88,-8.75,1.84,,,
1535.8,1537.64,-5.9,-8.75,1.84,,,
1535.9,1537.74,-5.91,-8.76,1.84,,,
1536,1537.84,-5.9,-8.7,1.84,,,
1536.1,1537.94,-5.9,-8.73,1.84,,,
1536.2,1538.04,-5.9,-8.84,1.84,,,
1536.3,1538.14,-5.9,-8.72,1.84,,,
1536.4,1538.24,-5.9,-8.75,1.84,,,
1536.5,1538.34,-5.9,-8.77,1.84,,,
1536.6,1538.44,-5.88,-8.83,1.84,,,
1536.7,1538.55,-5.88,-8.73,1.85,,,
1536.8,1538.65,-5.9,-8.76,1.85,,,
1536.9,1538.76,-5.9,-8.77,1.86,,,
1537,1538.86,-5.9,-8.7,1.86,,,
1537.1,1538.97,-5.9,-8.69,1.87,,,
1537.2,1539.07,-5.88,-8.84,1.87,,,
1537.3,1539.17,-5.9,-8.76,1.87,,,
1537.4,1539.27,-5.9,-8.73,1.87,,,
1537.5,1539.37,-5.88,-8.76,1.87,,,
1537.6,1539.47,-5.9,-8.76,1.87,,,
1537.7,1539.58,-5.9,-8.79,1.88,,,
1537.8,1539.68,-5.88,-8.74,1.88,,,
1537.9,1539.78,-5.9,-8.77,1.88,,,
1538,1539.89,-5.9,-8.78,1.89,,,
1538.1,1540,-5.9,-8.7,1.9,,,
1538.2,1540.11,-5.9,-8.74,1.91,,,
1538.3,1540.22,-5.9,-8.71,1.92,,,
1538.4,1540.33,-5.9,-8.81,1.93,,,
1538.5,1540.44,-5.9,-8.71,1.94,,,
1538.6,1540.55,-5.9,-8.81,1.95,,,
1538.7,1540.66,-5.88,-8.73,1.96,,,
1538.8,1540.76,-5.88,-8.87,1.96,,,
1538.9,1540.87,-5.9,-8.75,1.97,,,
1539,1540.97,-5.9,-8.81,1.97,,,
1539.1,1541.08,-5.9,-8.77,1.98,,,
1539.2,1541.18,-5.9,-8.79,1.98,,,
1539.3,1541.29,-5.9,-8.77,1.99,,,
1539.4,1541.4,-5.9,-8.78,2,,,
1539.5,1541.5,-5.9,-8.83,2,,,
1539.6,1541.6,-5.9,-8.93,2,,,
1539.7,1541.71,-5.9,-8.94,2.01,,,
1539.8,1541.81,-5.9,-8.77,2.01,,,
1539.9,1541.91,-5.91,-8.75,2.01,,,
1540,1542.02,-5.9,-8.74,2.02,,,
1540.1,1542.12,-5.9,-8.81,2.02,,,
1540.2,1542.23,-5.9,-8.78,2.03,,,
1540.3,1542.33,-5.9,-8.78,2.03,,,
1540.4,1542.44,-5.9,-8.76,2.04,,,
1540.5,1542.55,-5.9,-8.79,2.05,,,
1540.6,1542.65,-5.9,-8.78,2.05,,,
1540.7,1542.75,-5.9,-8.81,2.05,,,
1540.8,1542.86,-5.91,-8.74,2.06,,,
1540.9,1542.97,-5.9,-8.87,2.07,,,
1541,1543.06,-5.9,-8.86,2.06,,,
1541.1,1543.17,-5.9,-8.77,2.07,,,
1541.2,1543.27,-5.9,-8.73,2.07,,,
1541.3,1543.38,-5.9,-8.92,2.08,,,
1541.4,1543.48,-5.9,-8.8,2.08,,,
1541.5,1543.59,-5.9,-8.79,2.09,,,
1541.6,1543.69,-5.9,-8.82,2.09,,,
1541.7,1543.8,-5.9,-8.79,2.1,,,
1541.8,1543.91,-5.88,-8.92,2.11,,,
1541.9,1544.01,-5.88,-8.77,2.11,,,
1542,1544.11,-5.9,-8.94,2.11,,,
1542.1,1544.21,-5.9,-8.73,2.11,,,
1542.2,1544.31,-5.88,-8.75,2.11,,,
1542.3,1544.4,-5.9,-8.86,2.1,,,
1542.4,1544.51,-5.9,-8.78,2.11,,,
1542.5,1544.62,-5.9,-8.84,2.12,,,
1542.6,1544.72,-5.9,-8.77,2.12,,,
1542.7,1544.83,-5.9,-8.74,2.13,,,
1542.8,1544.93,-5.9,-8.76,2.13,,,
1542.9,1545.03,-5.9,-8.94,2.13,,,
1543,1545.14,-5.9,-8.78,2.14,,,
1543.1,1545.24,-5.9,-8.78,2.14,,,
1543.2,1545.34,-5.88,-8.76,2.14,,,
1543.3,1545.45,-5.9,-8.89,2.15,,,
1543.4,1545.55,-5.9,-8.74,2.15,,,
1543.5,1545.65,-5.9,-8.81,2.15,,,
1543.6,1545.76,-5.9,-8.92,2.16,,,
1543.7,1545.86,-5.9,-8.77,2.16,,,
1543.8,1545.96,-5.9,-8.78,2.16,,,
1543.9,1546.06,-5.9,-8.78,2.16,,,
1544,1546.17,-5.9,-8.87,2.17,,,
1544.1,1546.27,-5.9,-8.86,2.17,,,
1544.2,1546.38,-5.9,-8.68,2.18,,,
1544.3,1546.48,-5.9,-8.85,2.18,,,
1544.4,1546.58,-5.88,-8.7,2.18,,,
1544.5,1546.68,-5.9,-8.8,2.18,,,
1544.6,1546.78,-5.9,-8.74,2.18,,,
1544.7,1546.89,-5.9,-8.74,2.19,,,
1544.8,1546.99,-5.9,-8.72,2.19,,,
1544.9,1547.1,-5.9,-8.9,2.2,,,
1545,1547.2,-5.9,-8.74,2.2,,,
1545.1,1547.3,-5.9,-8.75,2.2,,,
1545.2,1547.41,-5.88,-8.72,2.21,,,
1545.3,1547.51,-5.9,-8.69,2.21,,,
1545.4,1547.61,-5.9,-8.75,2.21,,,
1545.5,1547.71,-5.9,-8.81,2.21,,,
1545.6,1547.81,-5.9,-8.76,2.21,,,
1545.7,1547.92,-5.88,-8.72,2.22,,,
1545.8,1548.02,-5.9,-8.78,2.22,,,
1545.9,1548.12,-5.88,-8.69,2.22,,,
1546,1548.21,-5.9,-8.89,2.21,,,
1546.1,1548.33,-5.9,-8.82,2.23,,,
1546.2,1548.43,-5.88,-8.72,2.23,,,
1546.3,1548.54,-5.9,-8.71,2.24,,,
1546.4,1548.64,-5.9,-8.86,2.24,,,
1546.5,1548.76,-5.9,-8.72,2.26,,,
1546.6,1548.87,-5.9,-8.74,2.27,,,
1546.7,1548.97,-5.9,-8.83,2.27,,,
1546.8,1549.07,-5.88,-8.85,2.27,,,
1546.9,1549.17,-5.9,-8.71,2.27,,,
1547,1549.27,-5.9,-8.71,2.27,,,
1547.1,1549.37,-5.9,-8.81,2.27,,,
1547.2,1549.48,-5.88,-8.7,2.28,,,
1547.3,1549.58,-5.9,-8.7,2.28,,,
1547.4,1549.69,-5.88,-8.74,2.29,,,
1547.5,1549.8,-5.9,-8.89,2.3,,,
1547.6,1549.9,-5.88,-8.72,2.3,,,
1547.7,1550.01,-5.9,-8.74,2.31,,,
1547.8,1550.1,-5.88,-8.71,2.3,,,
1547.9,1550.18,-5.88,-8.78,2.28,,,
1548,1550.28,-5.9,-8.83,2.28,,,
1548.1,1550.39,-5.9,-8.68,2.29,,,
1548.2,1550.5,-5.88,-8.78,2.3,,,
1548.3,1550.62,-5.9,-8.76,2.32,,,
1548.4,1550.72,-5.9,-8.7,2.32,,,
1548.5,1550.83,-5.88,-8.72,2.33,,,
1548.6,1550.92,-5.9,-8.81,2.32,,,
1548.7,1551.04,-5.88,-8.73,2.34,,,
1548.8,1551.15,-5.9,-8.78,2.35,,,
1548.9,1551.25,-5.88,-8.66,2.35,,,
1549,1551.35,-5.9,-8.75,2.35,,,
1549.1,1551.45,-5.88,-8.81,2.35,,,
1549.2,1551.55,-5.88,-8.71,2.35,,,
1549.3,1551.64,-5.9,-8.75,2.34,,,
1549.4,1551.75,-5.88,-8.71,2.35,,,
1549.5,1551.85,-5.88,-8.78,2.35,,,
1549.6,1551.96,-5.88,-8.73,2.36,,,
1549.7,1552.07,-5.9,-8.94,2.37,,,
1549.8,1552.17,-5.9,-8.67,2.37,,,
1549.9,1552.27,-5.88,-8.78,2.37,,,
1550,1552.37,-5.88,-8.72,2.37,,,
1550.1,1552.47,-5.9,-8.77,2.37,,,
1550.2,1552.57,-5.9,-8.95,2.37,,,
1550.3,1552.67,-5.88,-8.73,2.37,,,
1550.4,1552.77,-5.9,-8.7,2.37,,,
1550.5,1552.88,-5.9,-8.72,2.38,,,
1550.6,1552.97,-5.9,-8.87,2.37,,,
1550.7,1553.07,-5.9,-8.81,2.37,,,
1550.8,1553.17,-5.9,-8.69,2.37,,,
1550.9,1553.27,-5.9,-8.72,2.37,,,
1551,1553.36,-5.9,-8.74,2.36,,,
1551.1,1553.46,-5.88,-8.79,2.36,,,
1551.2,1553.55,-5.9,-8.83,2.35,,,
1551.3,1553.65,-5.88,-8.72,2.35,,,
1551.4,1553.74,-5.88,-8.94,2.34,,,
1551.5,1553.84,-5.9,-8.73,2.34,,,
1551.6,1553.93,-5.9,-8.88,2.33,,,
1551.7,1554.02,-5.9,-8.75,2.32,,,
1551.8,1554.1,-5.9,-8.83,2.3,,,
1551.9,1554.19,-5.9,-8.88,2.29,,,
1552,1554.27,-5.9,-8.81,2.27,,,
1552.1,1554.32,-5.9,-8.77,2.22,,,
1552.2,1554.41,-5.9,-8.8,2.21,,,
1552.3,1554.49,-5.88,-8.69,2.19,,,
1552.4,1554.58,-5.9,-8.85,2.18,,,
1552.5,1554.66,-5.9,-8.72,2.16,,,
1552.6,1550.1,-5.9,-210,-2.5,,,
1552.7,1554.74,-5.9,-8.88,2.04,,,
1552.8,1554.84,-5.9,-8.75,2.04,,,
1552.9,1554.93,-5.88,-8.74,2.03,,,
1553,1555.02,-5.9,-8.75,2.02,,,
1553.1,1555.11,-5.88,-8.76,2.01,,,
1553.2,1555.2,-5.9,-8.91,2,,,
1553.3,1555.3,-5.9,-8.77,2,,,
1553.4,1555.39,-5.88,-8.73,1.99,,,
1553.5,1555.49,-5.9,-8.84,1.99,,,
1553.6,1555.59,-5.9,-8.92,1.99,,,
1553.7,1555.67,-5.9,-8.78,1.97,,,
1553.8,1555.76,-5.9,-8.79,1.96,,,
1553.9,1555.85,-5.9,-8.89,1.95,,,
1554,1555.95,-5.9,-8.81,1.95,,,
1554.1,1556.04,-5.9,-8.74,1.94,,,
1554.2,1556.13,-5.9,-8.72,1.93,,,
1554.3,1556.22,-5.9,-8.72,1.92,,,
1554.4,1556.32,-5.9,-8.75,1.92,,,
1554.5,1556.41,-5.9,-8.82,1.91,,,
1554.6,1556.51,-5.9,-8.77,1.91,,,
1554.7,1556.6,-5.9,-8.7,1.9,,,
1554.8,1556.7,-5.9,-8.72,1.9,,,
1554.9,1556.79,-5.9,-8.77,1.89,,,
1555,1556.89,-5.9,-8.69,1.89,,,
1555.1,1556.98,-5.9,-8.67,1.88,,,
1555.2,1557.08,-5.9,-8.82,1.88,,,
1555.3,1557.16,-5.9,-8.91,1.86,,,
1555.4,1557.27,-5.91,-8.83,1.87,,,
1555.5,1557.36,-5.9,-8.72,1.86,,,
1555.6,1557.45,-5.9,-8.89,1.85,,,
1555.7,1557.55,-5.9,-8.73,1.85,,,
1555.8,1557.65,-5.9,-8.71,1.85,,,
1555.9,1557.75,-5.9,-8.79,1.85,,,
1556,1557.85,-5.9,-8.69,1.85,,,
1556.1,1557.95,-5.9,-8.77,1.85,,,
1556.2,1558.03,-5.88,-8.89,1.83,,,
1556.3,1558.13,-5.9,-8.76,1.83,,,
1556.4,1558.23,-5.9,-8.73,1.83,,,
1556.5,1558.32,-5.9,-8.78,1.82,,,
1556.6,1558.42,-5.9,-8.7,1.82,,,
1556.7,1558.52,-5.9,-8.71,1.82,,,
1556.8,1558.62,-5.88,-8.75,1.82,,,
1556.9,1558.72,-5.9,-8.75,1.82,,,
1557,1558.81,-5.9,-8.85,1.81,,,
1557.1,1558.91,-5.9,-8.69,1.81,,,
1557.2,1559,-5.9,-8.8,1.8,,,
1557.3,1559.1,-5.9,-8.67,1.8,,,
1557.4,1559.2,-5.9,-8.89,1.8,,,
1557.5,1559.29,-5.9,-8.75,1.79,,,
1557.6,1559.4,-5.9,-8.73,1.8,,,
1557.7,1559.49,-5.9,-8.88,1.79,,,
1557.8,1559.6,-5.9,-8.86,1.8,,,
1557.9,1559.69,-5.88,-8.83,1.79,,,
1558,1559.8,-5.9,-8.75,1.8,,,
1558.1,1559.89,-5.9,-8.74,1.79,,,
1558.2,1560,-5.9,-8.74,1.8,,,
1558.3,1560.09,-5.88,-8.8,1.79,,,
1558.4,1560.19,-5.9,-8.72,1.79,,,
1558.5,1560.29,-5.9,-8.72,1.79,,,
1558.6,1560.39,-5.9,-8.72,1.79,,,
1558.7,1560.5,-5.9,-8.72,1.8,,,
1558.8,1560.59,-5.9,-8.71,1.79,,,
1558.9,1560.7,-5.9,-8.81,1.8,,,
1559,1560.79,-5.9,-8.76,1.79,,,
1559.1,1560.89,-5.9,-8.71,1.79,,,
1559.2,1560.99,-5.9,-8.68,1.79,,,
1559.3,1561.09,-5.9,-8.65,1.79,,,
1559.4,1561.18,-5.88,-8.69,1.78,,,
1559.5,1561.28,-5.9,-8.75,1.78,,,
1559.6,1561.37,-5.9,-8.84,1.77,,,
1559.7,1561.47,-5.9,-8.75,1.77,,,
1559.8,1561.58,-5.9,-8.68,1.78,,,
1559.9,1561.68,-5.9,-8.71,1.78,,,
1560,1561.78,-5.91,-8.82,1.78,,,
1560.1,1561.88,-5.9,-8.69,1.78,,,
1560.2,1561.96,-5.9,-8.75,1.76,,,
1560.3,1562.06,-5.9,-8.64,1.76,,,
1560.4,1562.16,-5.9,-8.7,1.76,,,
1560.5,1562.25,-5.9,-8.72,1.75,,,
1560.6,1562.35,-5.9,-8.65,1.75,,,
1560.7,1562.45,-5.88,-8.71,1.75,,,
1560.8,1562.54,-5.9,-8.76,1.74,,,
1560.9,1562.64,-5.88,-8.71,1.74,,,
1561,1562.74,-5.9,-8.72,1.74,,,
1561.1,1562.84,-5.9,-8.7,1.74,,,
1561.2,1562.94,-5.9,-8.7,1.74,,,
1561.3,1563.03,-5.9,-8.76,1.73,,,
1561.4,1563.13,-5.9,-8.78,1.73,,,
1561.5,1563.23,-5.9,-8.71,1.73,,,
1561.6,1563.32,-5.9,-8.7,1.72,,,
1561.7,1563.41,-5.9,-8.68,1.71,,,
1561.8,1563.51,-5.9,-8.68,1.71,,,
1561.9,1563.6,-5.9,-8.77,1.7,,,
1562,1563.7,-5.9,-8.81,1.7,,,
1562.1,1563.8,-5.9,-8.67,1.7,,,
1562.2,1563.9,-5.88,-8.73,1.7,,,
1562.3,1564,-5.9,-8.64,1.7,,,
1562.4,1564.09,-5.9,-8.77,1.69,,,
1562.5,1564.19,-5.9,-8.79,1.69,,,
1562.6,1564.28,-5.9,-8.84,1.68,,,
1562.7,1564.38,-5.9,-8.68,1.68,,,
1562.8,1564.48,-5.9,-8.66,1.68,,,
1562.9,1564.58,-5.9,-8.72,1.68,,,
1563,1564.67,-5.9,-8.75,1.67,,,
1563.1,1564.77,-5.9,-8.74,1.67,,,
1563.2,1564.87,-5.9,-8.85,1.67,,,
1563.3,1564.97,-5.9,-8.69,1.67,,,
1563.4,1565.07,-5.9,-8.7,1.67,,,
1563.5,1565.16,-5.9,-8.83,1.66,,,
1563.6,1565.27,-5.9,-8.67,1.67,,,
1563.7,1565.36,-5.88,-8.78,1.66,,,
1563.8,1565.46,-5.9,-8.68,1.66,,,
1563.9,1565.56,-5.88,-8.67,1.66,,,
1564,1565.66,-5.88,-8.75,1.66,,,
1564.1,1565.76,-5.88,-8.7,1.66,,,
1564.2,1565.86,-5.88,-8.69,1.66,,,
1564.3,1565.96,-5.88,-8.64,1.66,,,
1564.4,1566.05,-5.88,-8.74,1.65,,,
1564.5,1566.16,-5.9,-8.65,1.66,,,
1564.6,1566.26,-5.9,-8.64,1.66,,,
1564.7,1566.37,-5.9,-8.79,1.67,,,
1564.8,1566.46,-5.9,-8.64,1.66,,,
1564.9,1566.55,-5.9,-8.71,1.65,,,
1565,1566.65,-5.9,-8.63,1.65,,,
1565.1,1566.75,-5.88,-8.72,1.65,,,
1565.2,1566.85,-5.9,-8.7,1.65,,,
1565.3,1566.94,-5.88,-8.74,1.64,,,
1565.4,1567.05,-5.9,-8.64,1.65,,,
1565.5,1567.14,-5.88,-8.71,1.64,,,
1565.6,1567.25,-5.88,-8.67,1.65,,,
1565.7,1567.34,-5.9,-8.75,1.64,,,
1565.8,1567.45,-5.9,-8.67,1.65,,,
1565.9,1567.54,-5.9,-8.67,1.64,,,
1566,1567.64,-5.88,-8.86,1.64,,,
1566.1,1567.74,-5.9,-8.69,1.64,,,
1566.2,1567.84,-5.9,-8.64,1.64,,,
1566.3,1567.94,-5.88,-8.68,1.64,,,
1566.4,1568.03,-5.9,-8.8,1.63,,,
1566.5,1568.14,-5.9,-8.64,1.64,,,
1566.6,1568.23,-5.88,-8.64,1.63,,,
1566.7,1568.33,-5.9,-8.66,1.63,,,
1566.8,1568.43,-5.9,-8.73,1.63,,,
1566.9,1568.54,-5.9,-8.63,1.64,,,
1567,1568.61,-5.9,-8.69,1.61,,,
1567.1,1568.7,-5.9,-8.82,1.6,,,
1567.2,1568.8,-5.9,-8.65,1.6,,,
1567.3,1568.89,-5.9,-8.67,1.59,,,
1567.4,1568.99,-5.9,-8.72,1.59,,,
1567.5,1569.09,-5.9,-8.68,1.59,,,
1567.6,1569.19,-5.88,-8.67,1.59,,,
1567.7,1569.28,-5.9,-8.67,1.58,,,
1567.8,1569.38,-5.88,-8.63,1.58,,,
1567.9,1569.49,-5.88,-8.67,1.59,,,
1568,1569.58,-5.9,-8.63,1.58,,,
1568.1,1569.68,-5.9,-8.6,1.58,,,
1568.2,1569.78,-5.9,-8.6,1.58,,,
1568.3,1569.88,-5.9,-8.59,1.58,,,
1568.4,1569.98,-5.9,-8.59,1.58,,,
1568.5,1570.08,-5.9,-8.63,1.58,,,
1568.6,1570.18,-5.9,-8.62,1.58,,,
1568.7,1570.28,-5.9,-8.62,1.58,,,
1568.8,1570.38,-5.9,-8.65,1.58,,,
1568.9,1570.48,-5.88,-8.61,1.58,,,
1569,1570.58,-5.88,-8.78,1.58,,,
1569.1,1570.68,-5.9,-8.63,1.58,,,
1569.2,1570.78,-5.9,-8.62,1.58,,,
1569.3,1570.88,-5.9,-8.62,1.58,,,
1569.4,1570.98,-5.88,-8.67,1.58,,,
1569.5,1571.09,-5.88,-8.62,1.59,,,
1569.6,1571.19,-5.9,-8.62,1.59,,,
1569.7,1571.29,-5.88,-8.66,1.59,,,
1569.8,1571.39,-5.9,-8.65,1.59,,,
1569.9,1571.48,-5.9,-8.75,1.58,,,
1570,1571.57,-5.9,-8.64,1.57,,,
1570.1,1571.67,-5.9,-8.65,1.57,,,
1570.2,1571.77,-5.9,-8.65,1.57,,,
1570.3,1571.87,-5.9,-8.64,1.57,,,
1570.4,1571.97,-5.88,-8.63,1.57,,,
1570.5,1572.07,-5.88,-8.64,1.57,,,
1570.6,1572.18,-5.9,-8.63,1.58,,,
1570.7,1572.27,-5.9,-8.6,1.57,,,
1570.8,1572.37,-5.9,-8.64,1.57,,,
1570.9,1572.47,-5.88,-8.64,1.57,,,
1571,1572.57,-5.9,-8.72,1.57,,,
1571.1,1572.67,-5.9,-8.66,1.57,,,
1571.2,1572.77,-5.9,-8.62,1.57,,,
1571.3,1572.87,-5.9,-8.66,1.57,,,
1571.4,1572.96,-5.9,-8.67,1.56,,,
1571.5,1573.06,-5.88,-8.83,1.56,,,
1571.6,1573.16,-5.9,-8.73,1.56,,,
1571.7,1573.26,-5.9,-8.66,1.56,,,
1571.8,1573.36,-5.9,-8.74,1.56,,,
1571.9,1573.45,-5.9,-8.74,1.55,,,
1572,1573.56,-5.88,-8.63,1.56,,,
1572.1,1573.66,-5.9,-8.8,1.56,,,
1572.2,1573.76,-5.9,-8.63,1.56,,,
1572.3,1573.85,-5.9,-8.65,1.55,,,
1572.4,1573.95,-5.9,-8.67,1.55,,,
1572.5,1574.06,-5.9,-8.82,1.56,,,
1572.6,1574.16,-5.9,-8.67,1.56,,,
1572.7,1574.26,-5.9,-8.65,1.56,,,
1572.8,1574.35,-5.9,-8.63,1.55,,,
1572.9,1574.44,-5.9,-8.73,1.54,,,
1573,1574.54,-5.9,-8.76,1.54,,,
1573.1,1574.63,-5.9,-8.7,1.53,,,
1573.2,1574.73,-5.9,-8.65,1.53,,,
1573.3,1574.83,-5.9,-8.69,1.53,,,
1573.4,1574.93,-5.9,-8.7,1.53,,,
1573.5,1575.03,-5.9,-8.72,1.53,,,
1573.6,1575.12,-5.9,-8.77,1.52,,,
1573.7,1575.23,-5.9,-8.72,1.53,,,
1573.8,1575.33,-5.9,-8.66,1.53,,,
1573.9,1575.42,-5.9,-8.67,1.52,,,
1574,1575.52,-5.9,-8.64,1.52,,,
1574.1,1575.62,-5.9,-8.85,1.52,,,
1574.2,1575.71,-5.9,-8.64,1.51,,,
1574.3,1575.81,-5.9,-8.79,1.51,,,
1574.4,1575.91,-5.9,-8.7,1.51,,,
1574.5,1576.01,-5.9,-8.72,1.51,,,
1574.6,1576.11,-5.9,-8.69,1.51,,,
1574.7,1576.21,-5.88,-8.68,1.51,,,
1574.8,1576.32,-5.9,-8.77,1.52,,,
1574.9,1576.42,-5.9,-8.65,1.52,,,
1575,1576.52,-5.9,-8.79,1.52,,,
