ATTENUATION,T100 POWER,T100 WAVELENGTH,Power Meter Reading (1465 nm),,ATTENUATION,T100 POWER,T100 WAVELENGTH,Power Meter Reading (1520 nm),,ATTENUATION,T100 POWER,T100 WAVELENGTH,Power Meter Reading (1575 nm)
1.06,-0.01,1465,-16.4923,,1.06,-0.01,1520,-15.4209,,1.06,-0.02,1575,-14.5219
1.16,-0.01,1465,-16.5836,,1.16,-0.01,1520,-15.5121,,1.16,-0.01,1575,-14.5972
1.26,-0.01,1465,-16.6855,,1.26,-0.01,1520,-15.6093,,1.26,-0.01,1575,-14.6979
1.36,-0.01,1465,-16.7906,,1.36,-0.01,1520,-15.7061,,1.36,-0.01,1575,-14.8016
1.46,-0.01,1465,-16.8841,,1.46,-0.01,1520,-15.8035,,1.46,-0.01,1575,-14.8928
1.56,-0.01,1465,-16.9735,,1.56,-0.01,1520,-15.9018,,1.56,-0.01,1575,-14.9807
1.66,-0.01,1465,-17.0632,,1.66,-0.01,1520,-16.0011,,1.66,-0.01,1575,-15.0705
1.76,-0.01,1465,-17.1556,,1.76,-0.01,1520,-16.1016,,1.76,-0.01,1575,-15.1628
1.86,-0.01,1465,-17.2498,,1.86,-0.01,1520,-16.2005,,1.86,-0.01,1575,-15.2554
1.96,-0.01,1465,-17.3417,,1.96,-0.01,1520,-16.2963,,1.96,-0.01,1575,-15.3466
2.06,-0.01,1465,-17.4434,,2.06,-0.01,1520,-16.4003,,2.06,-0.01,1575,-15.4464
2.16,-0.01,1465,-17.5394,,2.16,-0.01,1520,-16.4971,,2.16,-0.01,1575,-15.5392
2.26,-0.01,1465,-17.6395,,2.26,-0.01,1520,-16.5988,,2.26,-0.01,1575,-15.6373
2.36,-0.01,1465,-17.7301,,2.36,-0.01,1520,-16.6909,,2.36,-0.01,1575,-15.727
2.46,-0.01,1465,-17.8352,,2.46,-0.01,1520,-16.799,,2.46,-0.01,1575,-15.8309
2.56,-0.01,1465,-17.9286,,2.56,-0.01,1520,-16.8949,,2.56,-0.01,1575,-15.9238
2.66,-0.01,1465,-18.0142,,2.66,-0.01,1520,-16.9829,,2.66,-0.01,1575,-16.0089
2.76,-0.01,1465,-18.1142,,2.76,-0.01,1520,-17.0866,,2.76,-0.01,1575,-16.1095
2.86,-0.01,1465,-18.201,,2.86,-0.01,1520,-17.1773,,2.86,-0.01,1575,-16.1981
2.96,-0.01,1465,-18.2924,,2.96,-0.01,1520,-17.271,,2.96,-0.01,1575,-16.2896
3.06,-0.01,1465,-18.4042,,3.06,-0.01,1520,-17.3913,,3.06,-0.01,1575,-16.4046
3.16,-0.01,1465,-18.4815,,3.16,-0.01,1520,-17.4715,,3.16,-0.01,1575,-16.4828
3.26,-0.01,1465,-18.5823,,3.26,-0.01,1520,-17.5764,,3.26,-0.01,1575,-16.5846
3.36,-0.01,1465,-18.6765,,3.36,-0.01,1520,-17.6741,,3.36,-0.01,1575,-16.6795
3.46,-0.01,1465,-18.7591,,3.46,-0.01,1520,-17.7599,,3.46,-0.01,1575,-16.7638
3.56,-0.01,1465,-18.8698,,3.56,-0.01,1520,-17.8752,,3.56,-0.01,1575,-16.8761
3.66,-0.01,1465,-18.9682,,3.66,-0.01,1520,-17.9784,,3.66,-0.01,1575,-16.9769
3.76,-0.01,1465,-19.061,,3.76,-0.01,1520,-18.0768,,3.76,-0.01,1575,-17.0729
3.86,-0.01,1465,-19.1539,,3.86,-0.01,1520,-18.1734,,3.86,-0.01,1575,-17.1677
3.96,-0.01,1465,-19.2485,,3.96,-0.01,1520,-18.2726,,3.96,-0.01,1575,-17.2647
4.06,-0.01,1465,-19.3512,,4.06,-0.01,1520,-18.3778,,4.06,-0.01,1575,-17.3698
4.16,-0.01,1465,-19.4464,,4.16,-0.01,1520,-18.4769,,4.16,-0.01,1575,-17.4672
4.26,-0.01,1465,-19.5473,,4.26,-0.01,1520,-18.5801,,4.26,-0.01,1575,-17.5681
4.36,-0.01,1465,-19.6395,,4.36,-0.01,1520,-18.6741,,4.36,-0.01,1575,-17.6597
4.46,-0.01,1465,-19.7276,,4.46,-0.01,1520,-18.7642,,4.46,-0.01,1575,-17.7491
4.56,-0.01,1465,-19.8057,,4.56,-0.01,1520,-18.8428,,4.56,-0.01,1575,-17.83
4.66,-0.01,1465,-19.911,,4.66,-0.01,1520,-18.9505,,4.66,-0.01,1575,-17.938
4.76,-0.01,1465,-19.9958,,4.76,-0.01,1520,-19.0372,,4.76,-0.01,1575,-18.0249
4.86,-0.01,1465,-20.0845,,4.86,-0.01,1520,-19.1272,,4.86,-0.01,1575,-18.1157
4.96,-0.01,1465,-20.1951,,4.96,-0.01,1520,-19.2433,,4.96,-0.01,1575,-18.2294
5.06,-0.01,1465,-20.2879,,5.06,-0.01,1520,-19.3363,,5.06,-0.01,1575,-18.3233
5.16,-0.01,1465,-20.384,,5.16,-0.01,1520,-19.432,,5.16,-0.01,1575,-18.4194
5.26,-0.01,1465,-20.4813,,5.26,-0.01,1520,-19.5279,,5.26,-0.01,1575,-18.5161
5.36,-0.01,1465,-20.5719,,5.36,-0.01,1520,-19.6177,,5.36,-0.01,1575,-18.6065
5.46,-0.01,1465,-20.6596,,5.46,-0.01,1520,-19.7068,,5.46,-0.01,1575,-18.6977
5.56,-0.01,1465,-20.7765,,5.56,-0.01,1520,-19.8266,,5.56,-0.01,1575,-18.8187
5.66,-0.01,1465,-20.8719,,5.66,-0.01,1520,-19.9213,,5.66,-0.01,1575,-18.9133
5.76,-0.01,1465,-20.9644,,5.76,-0.01,1520,-20.0159,,5.76,-0.01,1575,-19.0084
5.86,-0.01,1465,-21.0589,,5.86,-0.01,1520,-20.1097,,5.86,-0.01,1575,-19.104
5.96,-0.01,1465,-21.1574,,5.96,-0.01,1520,-20.2065,,5.96,-0.01,1575,-19.2045
6.06,-0.01,1465,-21.2605,,6.06,-0.01,1520,-20.3109,,6.06,-0.01,1575,-19.3097
6.16,-0.01,1465,-21.3638,,6.16,-0.01,1520,-20.4137,,6.16,-0.01,1575,-19.4152
6.26,-0.01,1465,-21.4414,,6.26,-0.01,1520,-20.4886,,6.26,-0.01,1575,-19.4951
6.36,-0.01,1465,-21.5402,,6.36,-0.01,1520,-20.5924,,6.36,-0.01,1575,-19.5989
6.46,-0.01,1465,-21.6414,,6.46,-0.01,1520,-20.6969,,6.46,-0.01,1575,-19.7059
6.56,-0.01,1465,-21.743,,6.56,-0.01,1520,-20.8019,,6.56,-0.01,1575,-19.8132
6.66,-0.01,1465,-21.821,,6.66,-0.01,1520,-20.8758,,6.66,-0.01,1575,-19.8934
6.76,-0.01,1465,-21.9482,,6.76,-0.01,1520,-20.9847,,6.76,-0.01,1575,-20.024
6.86,-0.01,1465,-22.0431,,6.86,-0.01,1520,-21.0857,,6.86,-0.01,1575,-20.1143
6.96,-0.01,1465,-22.1524,,6.96,-0.01,1520,-21.1877,,6.96,-0.01,1575,-20.2206
7.06,-0.01,1465,-22.2665,,7.06,-0.01,1520,-21.2935,,7.06,-0.01,1575,-20.336
7.16,-0.01,1465,-22.3707,,7.16,-0.01,1520,-21.3951,,7.16,-0.01,1575,-20.4418
7.26,-0.01,1465,-22.4515,,7.26,-0.01,1520,-21.4746,,7.26,-0.01,1575,-20.5246
7.36,-0.01,1465,-22.563,,7.36,-0.01,1520,-21.5834,,7.36,-0.01,1575,-20.641
7.46,-0.01,1465,-22.6754,,7.46,-0.01,1520,-21.6914,,7.46,-0.01,1575,-20.7547
7.56,-0.01,1465,-22.7503,,7.56,-0.01,1520,-21.7638,,7.56,-0.01,1575,-20.8304
7.66,-0.01,1465,-22.8647,,7.66,-0.01,1520,-21.8741,,7.66,-0.01,1575,-20.9469
7.76,-0.01,1465,-22.9832,,7.76,-0.01,1520,-21.9903,,7.76,-0.01,1575,-21.0691
7.86,-0.01,1465,-23.062,,7.86,-0.01,1520,-22.0675,,7.86,-0.01,1575,-21.1504
7.96,-0.01,1465,-23.1742,,7.96,-0.01,1520,-22.174,,7.96,-0.01,1575,-21.2629
8.06,-0.01,1465,-23.2972,,8.06,-0.01,1520,-22.2936,,8.06,-0.01,1575,-21.3901
8.16,-0.01,1465,-23.3823,,8.16,-0.01,1520,-22.3769,,8.16,-0.01,1575,-21.4744
8.26,-0.01,1465,-23.4978,,8.26,-0.01,1520,-22.4843,,8.26,-0.01,1575,-21.5896
8.36,-0.01,1465,-23.585,,8.36,-0.01,1520,-22.5684,,8.36,-0.01,1575,-21.6784
8.46,-0.01,1465,-23.6926,,8.46,-0.01,1520,-22.6755,,8.46,-0.01,1575,-21.7885
8.56,-0.01,1465,-23.7939,,8.56,-0.01,1520,-22.7739,,8.56,-0.01,1575,-21.8936
8.66,-0.01,1465,-23.889,,8.66,-0.01,1520,-22.8699,,8.66,-0.01,1575,-21.9953
8.76,-0.01,1465,-23.9695,,8.76,-0.01,1520,-22.9482,,8.76,-0.01,1575,-22.08
8.86,-0.01,1465,-24.0939,,8.86,-0.01,1520,-23.068,,8.86,-0.01,1575,-22.2062
8.96,-0.01,1465,-24.2061,,8.96,-0.01,1520,-23.1748,,8.96,-0.01,1575,-22.3197
9.06,-0.01,1465,-24.29,,9.06,-0.01,1520,-23.2566,,9.06,-0.01,1575,-22.4035
9.16,-0.01,1465,-24.3945,,9.16,-0.01,1520,-23.3579,,9.16,-0.01,1575,-22.5094
9.26,-0.01,1465,-24.4819,,9.26,-0.01,1520,-23.4429,,9.26,-0.01,1575,-22.6034
9.36,-0.01,1465,-24.5955,,9.36,-0.01,1520,-23.5571,,9.36,-0.01,1575,-22.7222
9.46,-0.01,1465,-24.6747,,9.46,-0.01,1520,-23.6356,,9.46,-0.01,1575,-22.806
9.56,-0.01,1465,-24.7805,,9.56,-0.01,1520,-23.7412,,9.56,-0.01,1575,-22.9143
9.66,-0.01,1465,-24.873,,9.66,-0.01,1520,-23.8264,,9.66,-0.01,1575,-23.0065
9.76,-0.01,1465,-24.9921,,9.76,-0.01,1520,-23.95,,9.76,-0.01,1575,-23.1349
9.86,-0.01,1465,-25.0855,,9.86,-0.01,1520,-24.0387,,9.86,-0.01,1575,-23.2291
9.96,-0.01,1465,-25.2001,,9.96,-0.01,1520,-24.1541,,9.96,-0.01,1575,-23.3457
10.06,-0.01,1465,-25.3001,,10.06,-0.01,1520,-24.2498,,10.06,-0.01,1575,-23.4472
10.16,-0.01,1465,-25.3786,,10.16,-0.01,1520,-24.3259,,10.16,-0.01,1575,-23.5408
10.26,-0.01,1465,-25.5142,,10.26,-0.01,1520,-24.4546,,10.26,-0.01,1575,-23.6516
10.36,-0.01,1465,-25.6004,,10.36,-0.01,1520,-24.5366,,10.36,-0.01,1575,-23.7404
10.46,-0.01,1465,-25.6695,,10.46,-0.01,1520,-24.6012,,10.46,-0.01,1575,-23.8123
10.56,-0.01,1465,-25.8057,,10.56,-0.01,1520,-24.7366,,10.56,-0.01,1575,-23.9529
10.66,-0.01,1465,-25.8914,,10.66,-0.01,1520,-24.8194,,10.66,-0.01,1575,-24.0355
10.76,-0.01,1465,-25.9839,,10.76,-0.01,1520,-24.9104,,10.76,-0.01,1575,-24.131
10.86,-0.01,1465,-26.0938,,10.86,-0.01,1520,-25.02,,10.86,-0.01,1575,-24.2458
10.96,-0.01,1465,-26.1823,,10.96,-0.01,1520,-25.1063,,10.96,-0.01,1575,-24.3348
11.06,-0.01,1465,-26.2871,,11.06,-0.01,1520,-25.2082,,11.06,-0.01,1575,-24.4384
11.16,-0.01,1465,-26.3863,,11.16,-0.01,1520,-25.3067,,11.16,-0.01,1575,-24.5416
11.26,-0.01,1465,-26.4887,,11.26,-0.01,1520,-25.4095,,11.26,-0.01,1575,-24.6507
11.36,-0.01,1465,-26.5695,,11.36,-0.01,1520,-25.4879,,11.36,-0.01,1575,-24.7338
11.46,-0.01,1465,-26.6998,,11.46,-0.01,1520,-25.6159,,11.46,-0.01,1575,-24.8689
11.56,-0.01,1465,-26.8018,,11.56,-0.01,1520,-25.711,,11.56,-0.01,1575,-24.9672
11.66,-0.01,1465,-26.8881,,11.66,-0.01,1520,-25.7939,,11.66,-0.01,1575,-25.0465
11.76,-0.01,1465,-26.9796,,11.76,-0.01,1520,-25.879,,11.76,-0.01,1575,-25.1308
11.86,-0.01,1465,-27.1141,,11.86,-0.01,1520,-26.0086,,11.86,-0.01,1575,-25.2608
11.96,-0.01,1465,-27.2111,,11.96,-0.01,1520,-26.1038,,11.96,-0.01,1575,-25.3634
12.06,-0.01,1465,-27.3,,12.06,-0.01,1520,-26.1959,,12.06,-0.01,1575,-25.4542
12.16,-0.01,1465,-27.3849,,12.16,-0.01,1520,-26.3131,,12.16,-0.01,1575,-25.5724
12.26,-0.01,1465,-27.5221,,12.26,-0.01,1520,-26.4203,,12.26,-0.01,1575,-25.6784
12.36,-0.01,1465,-27.6296,,12.36,-0.01,1520,-26.5179,,12.36,-0.01,1575,-25.7782
12.46,-0.01,1465,-27.7149,,12.46,-0.01,1520,-26.5989,,12.46,-0.01,1575,-25.8624
12.56,-0.01,1465,-27.7964,,12.56,-0.01,1520,-26.6745,,12.56,-0.01,1575,-25.9475
12.66,-0.01,1465,-27.9296,,12.66,-0.01,1520,-26.8044,,12.66,-0.01,1575,-26.0783
12.76,-0.01,1465,-28.0248,,12.76,-0.01,1520,-26.9018,,12.76,-0.01,1575,-26.1745
12.86,-0.01,1465,-28.1131,,12.86,-0.01,1520,-26.9808,,12.86,-0.01,1575,-26.2603
12.96,-0.01,1465,-28.2224,,12.96,-0.01,1520,-27.0903,,12.96,-0.01,1575,-26.3664
13.06,-0.01,1465,-28.333,,13.06,-0.01,1520,-27.2008,,13.06,-0.01,1575,-26.482
13.16,-0.01,1465,-28.4186,,13.16,-0.01,1520,-27.2808,,13.16,-0.01,1575,-26.5653
13.26,-0.01,1465,-28.4923,,13.26,-0.01,1520,-27.3487,,13.26,-0.01,1575,-26.6359
13.36,-0.01,1465,-28.6301,,13.36,-0.01,1520,-27.4786,,13.36,-0.01,1575,-26.7631
13.46,-0.01,1465,-28.7414,,13.46,-0.01,1520,-27.5812,,13.46,-0.01,1575,-26.8669
13.56,-0.01,1465,-28.8338,,13.56,-0.01,1520,-27.6739,,13.56,-0.01,1575,-26.9545
13.66,-0.01,1465,-28.9267,,13.66,-0.01,1520,-27.7677,,13.66,-0.01,1575,-27.0471
13.76,-0.01,1465,-29.0673,,13.76,-0.01,1520,-27.9025,,13.76,-0.01,1575,-27.187
13.86,-0.01,1465,-29.1507,,13.86,-0.01,1520,-27.9858,,13.86,-0.01,1575,-27.2782
13.96,-0.01,1465,-29.2487,,13.96,-0.01,1520,-28.0891,,13.96,-0.01,1575,-27.3838
14.06,-0.01,1465,-29.3448,,14.06,-0.01,1520,-28.1765,,14.06,-0.01,1575,-27.4724
14.16,-0.01,1465,-29.4417,,14.16,-0.01,1520,-28.268,,14.16,-0.01,1575,-27.5634
14.26,-0.01,1465,-29.5316,,14.26,-0.01,1520,-28.3556,,14.26,-0.01,1575,-27.6472
14.36,-0.01,1465,-29.6909,,14.36,-0.01,1520,-28.5039,,14.36,-0.01,1575,-27.7809
14.46,-0.01,1465,-29.7872,,14.46,-0.01,1520,-28.591,,14.46,-0.01,1575,-27.8669
14.56,-0.01,1465,-29.8947,,14.56,-0.01,1520,-28.6957,,14.56,-0.01,1575,-27.9577
14.66,-0.01,1465,-29.9812,,14.66,-0.01,1520,-28.7834,,14.66,-0.01,1575,-28.0549
14.76,-0.01,1465,-30.054,,14.76,-0.01,1520,-28.859,,14.76,-0.01,1575,-28.1381
14.86,-0.01,1465,-30.1483,,14.86,-0.01,1520,-28.95,,14.86,-0.01,1575,-28.234
14.96,-0.01,1465,-30.2928,,14.96,-0.01,1520,-29.0893,,14.96,-0.01,1575,-28.3798
15.06,-0.01,1465,-30.3795,,15.06,-0.01,1520,-29.1728,,15.06,-0.01,1575,-28.4586
15.16,-0.01,1465,-30.4866,,15.16,-0.01,1520,-29.2795,,15.16,-0.01,1575,-28.562
15.26,-0.01,1465,-30.5849,,15.26,-0.01,1520,-29.3689,,15.26,-0.01,1575,-28.6558
15.36,-0.01,1465,-30.6793,,15.36,-0.01,1520,-29.4601,,15.36,-0.01,1575,-28.7568
15.46,-0.01,1465,-30.8065,,15.46,-0.01,1520,-29.5935,,15.46,-0.01,1575,-28.8796
15.56,-0.01,1465,-30.8695,,15.56,-0.01,1520,-29.6422,,15.56,-0.01,1575,-28.9359
15.66,-0.01,1465,-31.0212,,15.66,-0.01,1520,-29.798,,15.66,-0.01,1575,-29.0858
15.76,-0.01,1465,-31.109,,15.76,-0.01,1520,-29.8842,,15.76,-0.01,1575,-29.1731
15.86,-0.01,1465,-31.2099,,15.86,-0.01,1520,-29.9682,,15.86,-0.01,1575,-29.26
15.96,-0.01,1465,-31.3136,,15.96,-0.01,1520,-30.0693,,15.96,-0.01,1575,-29.3632
16.06,-0.01,1465,-31.408,,16.06,-0.01,1520,-30.1613,,16.06,-0.01,1575,-29.4552
16.16,-0.01,1465,-31.503,,16.16,-0.01,1520,-30.2503,,16.16,-0.01,1575,-29.5498
16.26,-0.01,1465,-31.6092,,16.26,-0.01,1520,-30.3489,,16.26,-0.01,1575,-29.6534
16.36,-0.01,1465,-31.6966,,16.36,-0.01,1520,-30.4362,,16.36,-0.01,1575,-29.7384
16.46,-0.01,1465,-31.8001,,16.46,-0.01,1520,-30.5346,,16.46,-0.01,1575,-29.8364
16.56,-0.01,1465,-31.921,,16.56,-0.01,1520,-30.6639,,16.56,-0.01,1575,-29.961
16.66,-0.01,1465,-32.0466,,16.66,-0.01,1520,-30.7832,,16.66,-0.01,1575,-30.0748
16.76,-0.01,1465,-32.1312,,16.76,-0.01,1520,-30.8708,,16.76,-0.01,1575,-30.1569
16.86,-0.01,1465,-32.24,,16.86,-0.01,1520,-30.9753,,16.86,-0.01,1575,-30.2625
16.96,-0.01,1465,-32.3257,,16.96,-0.01,1520,-31.047,,16.96,-0.01,1575,-30.3421
17.06,-0.01,1465,-32.4231,,17.06,-0.01,1520,-31.1354,,17.06,-0.01,1575,-30.4265
17.16,-0.01,1465,-32.5215,,17.16,-0.01,1520,-31.2212,,17.16,-0.01,1575,-30.5143
17.26,-0.01,1465,-32.6054,,17.26,-0.01,1520,-31.3032,,17.26,-0.01,1575,-30.5904
17.36,-0.01,1465,-32.6925,,17.36,-0.01,1520,-31.3875,,17.36,-0.01,1575,-30.6766
17.46,-0.01,1465,-32.7981,,17.46,-0.01,1520,-31.4885,,17.46,-0.01,1575,-30.7774
17.56,-0.01,1465,-32.8597,,17.56,-0.01,1520,-31.549,,17.56,-0.01,1575,-30.8405
17.66,-0.01,1465,-32.9645,,17.66,-0.01,1520,-31.6628,,17.66,-0.01,1575,-30.9491
17.76,-0.01,1465,-33.0818,,17.76,-0.01,1520,-31.7925,,17.76,-0.01,1575,-31.0668
17.86,-0.01,1465,-33.1833,,17.86,-0.01,1520,-31.8899,,17.86,-0.01,1575,-31.1554
17.96,-0.01,1465,-33.2776,,17.96,-0.01,1520,-31.9837,,17.96,-0.01,1575,-31.2466
18.06,-0.01,1465,-33.3996,,18.06,-0.01,1520,-32.0928,,18.06,-0.01,1575,-31.3577
18.16,-0.01,1465,-33.4932,,18.16,-0.01,1520,-32.1872,,18.16,-0.01,1575,-31.4539
18.26,-0.01,1465,-33.5923,,18.26,-0.01,1520,-32.2755,,18.26,-0.01,1575,-31.5384
18.36,-0.01,1465,-33.6904,,18.36,-0.01,1520,-32.359,,18.36,-0.01,1575,-31.6329
18.46,-0.01,1465,-33.782,,18.46,-0.01,1520,-32.4555,,18.46,-0.01,1575,-31.7248
18.56,-0.01,1465,-33.8724,,18.56,-0.01,1520,-32.5487,,18.56,-0.01,1575,-31.8228
18.66,-0.01,1465,-33.9648,,18.66,-0.01,1520,-32.6565,,18.66,-0.01,1575,-31.9077
18.76,-0.01,1465,-34.0744,,18.76,-0.01,1520,-32.7736,,18.76,-0.01,1575,-32.0167
18.86,-0.01,1465,-34.1718,,18.86,-0.01,1520,-32.8739,,18.86,-0.01,1575,-32.0978
18.96,-0.01,1465,-34.268,,18.96,-0.01,1520,-32.9521,,18.96,-0.01,1575,-32.1754
19.06,-0.01,1465,-34.3676,,19.06,-0.01,1520,-33.0491,,19.06,-0.01,1575,-32.2683
19.16,-0.01,1465,-34.455,,19.16,-0.01,1520,-33.1455,,19.16,-0.01,1575,-32.3574
19.26,-0.01,1465,-34.5533,,19.26,-0.01,1520,-33.247,,19.26,-0.01,1575,-32.4525
19.36,-0.01,1465,-34.6702,,19.36,-0.01,1520,-33.3556,,19.36,-0.01,1575,-32.5788
19.46,-0.01,1465,-34.7629,,19.46,-0.01,1520,-33.4512,,19.46,-0.01,1575,-32.6419
19.56,-0.01,1465,-34.8691,,19.56,-0.01,1520,-33.5516,,19.56,-0.01,1575,-32.7388
19.66,-0.01,1465,-34.9571,,19.66,-0.01,1520,-33.644,,19.66,-0.01,1575,-32.8289
19.76,-0.01,1465,-35.0757,,19.76,-0.01,1520,-33.7527,,19.76,-0.01,1575,-32.9471
19.86,-0.01,1465,-35.1352,,19.86,-0.01,1520,-33.8239,,19.86,-0.01,1575,-33.0217
19.96,-0.01,1465,-35.2819,,19.96,-0.01,1520,-33.9789,,19.96,-0.01,1575,-33.1677
20.06,-0.01,1465,-35.3206,,20.06,-0.01,1520,-34.0185,,20.06,-0.01,1575,-33.2106
20.16,-0.01,1465,-35.443,,20.16,-0.01,1520,-34.1344,,20.16,-0.01,1575,-33.3306
20.26,-0.01,1465,-35.5222,,20.26,-0.01,1520,-34.202,,20.26,-0.01,1575,-33.3988
20.36,-0.01,1465,-35.6349,,20.36,-0.01,1520,-34.3253,,20.36,-0.01,1575,-33.4994
20.46,-0.01,1465,-35.7026,,20.46,-0.01,1520,-34.3948,,20.46,-0.01,1575,-33.5738
20.56,-0.01,1465,-35.7948,,20.56,-0.01,1520,-34.5087,,20.56,-0.01,1575,-33.6676
20.66,-0.01,1465,-35.9094,,20.66,-0.01,1520,-34.6165,,20.66,-0.01,1575,-33.7623
20.76,-0.01,1465,-36.0152,,20.76,-0.01,1520,-34.7194,,20.76,-0.01,1575,-33.8687
20.86,-0.01,1465,-36.1097,,20.86,-0.01,1520,-34.8127,,20.86,-0.01,1575,-33.9514
20.96,-0.01,1465,-36.2124,,20.96,-0.01,1520,-34.916,,20.96,-0.01,1575,-34.062
21.06,-0.01,1465,-36.3221,,21.06,-0.01,1520,-35.033,,21.06,-0.01,1575,-34.1743
21.16,-0.01,1465,-36.3965,,21.16,-0.01,1520,-35.1177,,21.16,-0.01,1575,-34.258
21.26,-0.01,1465,-36.5082,,21.26,-0.01,1520,-35.2259,,21.26,-0.01,1575,-34.3694
21.36,-0.01,1465,-36.6054,,21.36,-0.01,1520,-35.3388,,21.36,-0.01,1575,-34.4727
21.46,-0.01,1465,-36.6875,,21.46,-0.01,1520,-35.403,,21.46,-0.01,1575,-34.5457
21.56,-0.01,1465,-36.7781,,21.56,-0.01,1520,-35.5036,,21.56,-0.01,1575,-34.6315
21.66,-0.01,1465,-36.9133,,21.66,-0.01,1520,-35.6472,,21.66,-0.01,1575,-34.7633
21.76,-0.01,1465,-36.9839,,21.76,-0.01,1520,-35.7278,,21.76,-0.01,1575,-34.8263
21.86,-0.01,1465,-37.0953,,21.86,-0.01,1520,-35.8344,,21.86,-0.01,1575,-34.9252
21.96,-0.01,1465,-37.216,,21.96,-0.01,1520,-35.9399,,21.96,-0.01,1575,-35.0297
22.06,-0.01,1465,-37.3163,,22.06,-0.01,1520,-36.0266,,22.06,-0.01,1575,-35.11
22.16,-0.01,1465,-37.4183,,22.16,-0.01,1520,-36.1444,,22.16,-0.01,1575,-35.207
22.26,-0.01,1465,-37.4961,,22.26,-0.01,1520,-36.2355,,22.26,-0.01,1575,-35.2851
22.36,-0.01,1465,-37.603,,22.36,-0.01,1520,-36.351,,22.36,-0.01,1575,-35.3866
22.46,-0.01,1465,-37.705,,22.46,-0.01,1520,-36.4516,,22.46,-0.01,1575,-35.4749
22.56,-0.01,1465,-37.7525,,22.56,-0.01,1520,-36.4818,,22.56,-0.01,1575,-35.5194
22.66,-0.01,1465,-37.8637,,22.66,-0.01,1520,-36.5855,,22.66,-0.01,1575,-35.6094
22.76,-0.01,1465,-38.0029,,22.76,-0.01,1520,-36.7141,,22.76,-0.01,1575,-35.7398
22.86,-0.01,1465,-38.0751,,22.86,-0.01,1520,-36.7841,,22.86,-0.01,1575,-35.797
22.96,-0.01,1465,-38.1681,,22.96,-0.01,1520,-36.8877,,22.96,-0.01,1575,-35.8903
23.06,-0.01,1465,-38.2775,,23.06,-0.01,1520,-36.9894,,23.06,-0.01,1575,-35.9852
23.16,-0.01,1465,-38.3671,,23.16,-0.01,1520,-37.0733,,23.16,-0.01,1575,-36.0672
23.26,-0.01,1465,-38.466,,23.26,-0.01,1520,-37.1879,,23.26,-0.01,1575,-36.1695
23.36,-0.01,1465,-38.5551,,23.36,-0.01,1520,-37.2754,,23.36,-0.01,1575,-36.2483
23.46,-0.01,1465,-38.6636,,23.46,-0.01,1520,-37.3689,,23.46,-0.01,1575,-36.3398
23.56,-0.01,1465,-38.7585,,23.56,-0.01,1520,-37.4552,,23.56,-0.01,1575,-36.4337
23.66,-0.01,1465,-38.8402,,23.66,-0.01,1520,-37.5427,,23.66,-0.01,1575,-36.5049
23.76,-0.01,1465,-38.9223,,23.76,-0.01,1520,-37.6453,,23.76,-0.01,1575,-36.6012
23.86,-0.01,1465,-39.014,,23.86,-0.01,1520,-37.7483,,23.86,-0.01,1575,-36.6936
23.96,-0.01,1465,-39.1106,,23.96,-0.01,1520,-37.8288,,23.96,-0.01,1575,-36.7972
24.06,-0.01,1465,-39.2137,,24.06,-0.01,1520,-37.9449,,24.06,-0.01,1575,-36.9089
24.16,-0.01,1465,-39.3296,,24.16,-0.01,1520,-38.0491,,24.16,-0.01,1575,-36.9797
24.26,-0.01,1465,-39.4544,,24.26,-0.01,1520,-38.1813,,24.26,-0.01,1575,-37.0668
24.36,-0.01,1465,-39.5046,,24.36,-0.01,1520,-38.2155,,24.36,-0.01,1575,-37.1472
24.46,-0.01,1465,-39.6524,,24.46,-0.01,1520,-38.346,,24.46,-0.01,1575,-37.2622
24.56,-0.01,1465,-39.719,,24.56,-0.01,1520,-38.415,,24.56,-0.01,1575,-37.3111
24.66,-0.01,1465,-39.843,,24.66,-0.01,1520,-38.5001,,24.66,-0.01,1575,-37.4439
24.76,-0.01,1465,-39.9271,,24.76,-0.01,1520,-38.5932,,24.76,-0.01,1575,-37.5618
24.86,-0.01,1465,-40.0281,,24.86,-0.01,1520,-38.6699,,24.86,-0.01,1575,-37.6228
24.96,-0.01,1465,-40.142,,24.96,-0.01,1520,-38.7966,,24.96,-0.01,1575,-37.7103
25.06,-0.01,1465,-40.2161,,25.06,-0.01,1520,-38.9055,,25.06,-0.01,1575,-37.8048
25.16,-0.01,1465,-40.3092,,25.16,-0.01,1520,-39.0328,,25.16,-0.01,1575,-37.9061
25.26,-0.01,1465,-40.4036,,25.26,-0.01,1520,-39.1216,,25.26,-0.01,1575,-38.0121
25.36,-0.01,1465,-40.5041,,25.36,-0.01,1520,-39.2298,,25.36,-0.01,1575,-38.1181
25.46,-0.01,1465,-40.6267,,25.46,-0.01,1520,-39.3059,,25.46,-0.01,1575,-38.1818
25.56,-0.01,1465,-40.7004,,25.56,-0.01,1520,-39.3853,,25.56,-0.01,1575,-38.2734
25.66,-0.01,1465,-40.776,,25.66,-0.01,1520,-39.4938,,25.66,-0.01,1575,-38.3907
25.76,-0.01,1465,-40.8351,,25.76,-0.01,1520,-39.5972,,25.76,-0.01,1575,-38.4842
25.86,-0.01,1465,-40.9404,,25.86,-0.01,1520,-39.6563,,25.86,-0.01,1575,-38.583
25.96,-0.01,1465,-41.07,,25.96,-0.01,1520,-39.7428,,25.96,-0.01,1575,-38.6437
26.06,-0.01,1465,-41.1763,,26.06,-0.01,1520,-39.8536,,26.06,-0.01,1575,-38.7255
26.16,-0.01,1465,-41.2545,,26.16,-0.01,1520,-39.9661,,26.16,-0.01,1575,-38.8253
26.26,-0.01,1465,-41.3377,,26.26,-0.01,1520,-40.0829,,26.26,-0.01,1575,-38.928
26.36,-0.01,1465,-41.4405,,26.36,-0.01,1520,-40.1624,,26.36,-0.01,1575,-39.0138
26.46,-0.01,1465,-41.5731,,26.46,-0.01,1520,-40.2758,,26.46,-0.01,1575,-39.1354
26.56,-0.01,1465,-41.6512,,26.56,-0.01,1520,-40.389,,26.56,-0.01,1575,-39.2005
26.66,-0.01,1465,-41.7281,,26.66,-0.01,1520,-40.4863,,26.66,-0.01,1575,-39.3008
26.76,-0.01,1465,-41.8007,,26.76,0,1520,-40.568,,26.76,-0.01,1575,-39.337
26.86,-0.01,1465,-41.9022,,26.86,-0.01,1520,-40.6682,,26.86,-0.01,1575,-39.4445
26.96,-0.01,1465,-42.0249,,26.96,-0.01,1520,-40.772,,26.96,-0.01,1575,-39.5452
27.06,-0.01,1465,-42.1762,,27.06,-0.01,1520,-40.9091,,27.06,-0.01,1575,-39.6746
27.16,-0.01,1465,-42.2423,,27.16,-0.01,1520,-40.9675,,27.16,-0.01,1575,-39.7592
27.26,-0.01,1465,-42.3638,,27.26,-0.01,1520,-41.0702,,27.26,-0.01,1575,-39.8796
27.36,-0.01,1465,-42.476,,27.36,-0.01,1520,-41.1703,,27.36,-0.01,1575,-39.9349
27.46,-0.01,1465,-42.6185,,27.46,-0.01,1520,-41.2625,,27.46,-0.01,1575,-40.0707
27.56,-0.01,1465,-42.6486,,27.56,-0.01,1520,-41.2983,,27.56,-0.01,1575,-40.1402
27.66,-0.01,1465,-42.7806,,27.66,-0.01,1520,-41.4712,,27.66,-0.01,1575,-40.3344
27.76,-0.01,1465,-42.8812,,27.76,-0.01,1520,-41.5334,,27.76,-0.01,1575,-40.3707
27.86,-0.01,1465,-42.9932,,27.86,-0.01,1520,-41.6595,,27.86,-0.01,1575,-40.4887
27.96,-0.01,1465,-43.1097,,27.96,-0.01,1520,-41.763,,27.96,-0.01,1575,-40.5776
28.06,-0.01,1465,-43.166,,28.06,-0.01,1520,-41.8666,,28.06,-0.01,1575,-40.6632
28.16,-0.01,1465,-43.256,,28.16,-0.01,1520,-41.9809,,28.16,-0.01,1575,-40.7567
28.26,-0.01,1465,-43.3428,,28.26,-0.01,1520,-42.0173,,28.26,-0.01,1575,-40.7695
28.36,-0.01,1465,-43.4874,,28.36,-0.01,1520,-42.1364,,28.36,-0.01,1575,-40.8968
28.46,-0.01,1465,-43.552,,28.46,-0.01,1520,-42.2141,,28.46,-0.01,1575,-40.9945
28.56,-0.01,1465,-43.6391,,28.56,-0.01,1520,-42.304,,28.56,-0.01,1575,-41.0551
28.66,-0.01,1465,-43.7782,,28.66,-0.01,1520,-42.4008,,28.66,-0.01,1575,-41.1395
28.76,0,1465,-43.9187,,28.76,-0.01,1520,-42.5007,,28.76,-0.01,1575,-41.3147
28.86,-0.01,1465,-44.0167,,28.86,-0.01,1520,-42.6352,,28.86,-0.01,1575,-41.4055
28.96,-0.01,1465,-44.0662,,28.96,-0.01,1520,-42.6398,,28.96,-0.01,1575,-41.4364
29.06,-0.01,1465,-44.1362,,29.06,-0.01,1520,-42.7781,,29.06,-0.01,1575,-41.545
29.16,-0.01,1465,-44.2157,,29.16,-0.01,1520,-42.8535,,29.16,-0.01,1575,-41.5732
29.26,-0.01,1465,-44.2998,,29.26,-0.01,1520,-42.935,,29.26,-0.01,1575,-41.6704
29.36,-0.01,1465,-44.3934,,29.36,-0.01,1520,-43.0552,,29.36,-0.01,1575,-41.7769
29.46,-0.01,1465,-44.5035,,29.46,-0.01,1520,-43.1711,,29.46,-0.01,1575,-41.8721
29.56,-0.01,1465,-44.6163,,29.56,-0.01,1520,-43.2651,,29.56,-0.01,1575,-42.0088
29.66,-0.01,1465,-44.6859,,29.66,-0.01,1520,-43.3826,,29.66,-0.01,1575,-42.1039
29.76,-0.01,1465,-44.855,,29.76,-0.01,1520,-43.5419,,29.76,-0.01,1575,-42.2368
29.86,-0.01,1465,-44.8893,,29.86,-0.01,1520,-43.5492,,29.86,-0.01,1575,-42.2683
29.96,-0.01,1465,-45.0335,,29.96,-0.01,1520,-43.665,,29.96,-0.01,1575,-42.3789
30.06,-0.01,1465,-45.1591,,30.06,-0.01,1520,-43.7762,,30.06,-0.01,1575,-42.472
30.16,-0.01,1465,-45.2491,,30.16,-0.01,1520,-43.861,,30.16,-0.01,1575,-42.5783
30.26,-0.01,1465,-45.3689,,30.26,-0.01,1520,-43.9785,,30.26,-0.01,1575,-42.6886
30.36,-0.01,1465,-45.4742,,30.36,-0.01,1520,-44.0648,,30.36,-0.01,1575,-42.7738
30.46,-0.01,1465,-45.5684,,30.46,-0.01,1520,-44.1821,,30.46,-0.01,1575,-42.9029
30.56,-0.01,1465,-45.5776,,30.56,-0.01,1520,-44.2133,,30.56,-0.01,1575,-42.9823
30.66,-0.01,1465,-45.6848,,30.66,-0.01,1520,-44.3168,,30.66,-0.01,1575,-43.0767
30.76,-0.01,1465,-45.8173,,30.76,-0.01,1520,-44.4677,,30.76,-0.01,1575,-43.1517
30.86,-0.01,1465,-45.8269,,30.86,-0.01,1520,-44.4689,,30.86,-0.01,1575,-43.2038
30.96,-0.01,1465,-45.9865,,30.96,-0.01,1520,-44.5752,,30.96,-0.01,1575,-43.2829
31.06,-0.01,1465,-46.1142,,31.06,-0.01,1520,-44.6151,,31.06,-0.01,1575,-43.3934
31.16,-0.01,1465,-46.1755,,31.16,-0.01,1520,-44.74,,31.16,-0.01,1575,-43.5504
31.26,-0.01,1465,-46.2848,,31.26,-0.01,1520,-44.9298,,31.26,-0.01,1575,-43.6488
31.36,-0.01,1465,-46.38,,31.36,-0.01,1520,-45.0172,,31.36,-0.01,1575,-43.6967
31.46,-0.01,1465,-46.5187,,31.46,-0.01,1520,-45.1132,,31.46,-0.01,1575,-43.7812
31.56,-0.01,1465,-46.6394,,31.56,-0.01,1520,-45.2356,,31.56,-0.01,1575,-43.908
31.66,-0.01,1465,-46.7512,,31.66,-0.01,1520,-45.3062,,31.66,-0.01,1575,-43.915
31.76,-0.01,1465,-46.8356,,31.76,-0.01,1520,-45.4137,,31.76,-0.01,1575,-44.0912
31.86,-0.01,1465,-46.9196,,31.86,-0.01,1520,-45.6081,,31.86,-0.01,1575,-44.2238
31.96,-0.01,1465,-46.9461,,31.96,-0.01,1520,-45.5984,,31.96,-0.01,1575,-44.2528
32.06,-0.01,1465,-47.0683,,32.06,-0.01,1520,-45.7867,,32.06,-0.01,1575,-44.3377
32.16,-0.01,1465,-47.273,,32.16,-0.01,1520,-45.8851,,32.16,-0.01,1575,-44.5035
32.26,-0.01,1465,-47.3192,,32.26,-0.01,1520,-45.9121,,32.26,-0.01,1575,-44.5469
32.36,-0.01,1465,-47.3755,,32.36,-0.01,1520,-45.9734,,32.36,-0.01,1575,-44.6993
32.46,-0.01,1465,-47.5452,,32.46,-0.01,1520,-46.1005,,32.46,-0.01,1575,-44.7642
32.56,-0.01,1465,-47.7026,,32.56,-0.01,1520,-46.1904,,32.56,-0.01,1575,-44.8288
32.66,-0.01,1465,-47.808,,32.66,-0.01,1520,-46.1832,,32.66,-0.01,1575,-44.9287
32.76,-0.01,1465,-47.8048,,32.76,-0.01,1520,-46.2516,,32.76,-0.01,1575,-45.0354
32.86,-0.01,1465,-47.9146,,32.86,-0.01,1520,-46.4027,,32.86,-0.01,1575,-45.1079
32.96,-0.01,1465,-48.0391,,32.96,-0.01,1520,-46.5194,,32.96,-0.01,1575,-45.2135
33.06,-0.01,1465,-48.093,,33.06,-0.01,1520,-46.5016,,33.06,-0.01,1575,-45.2661
33.16,-0.01,1465,-48.2221,,33.16,-0.01,1520,-46.6728,,33.16,-0.01,1575,-45.377
33.26,-0.01,1465,-48.2873,,33.26,-0.01,1520,-46.8441,,33.26,-0.01,1575,-45.5193
33.36,-0.01,1465,-48.5066,,33.36,-0.02,1520,-46.9218,,33.36,-0.01,1575,-45.6276
33.46,-0.01,1465,-48.6824,,33.46,-0.01,1520,-47.077,,33.46,-0.01,1575,-45.6933
33.56,-0.01,1465,-48.7119,,33.56,-0.01,1520,-47.1148,,33.56,-0.01,1575,-45.8626
33.66,-0.01,1465,-48.8567,,33.66,-0.01,1520,-47.218,,33.66,-0.01,1575,-45.9786
33.76,-0.01,1465,-48.8788,,33.76,-0.01,1520,-47.3205,,33.76,-0.01,1575,-46.089
33.86,-0.01,1465,-48.9713,,33.86,-0.01,1520,-47.4691,,33.86,-0.01,1575,-46.1819
33.96,-0.01,1465,-49.1005,,33.96,-0.01,1520,-47.5238,,33.96,-0.01,1575,-46.1375
34.06,-0.01,1465,-49.2231,,34.06,-0.01,1520,-47.6234,,34.06,-0.01,1575,-46.2635
34.16,-0.01,1465,-49.3135,,34.16,-0.01,1520,-47.7106,,34.16,-0.01,1575,-46.4354
34.26,-0.01,1465,-49.4374,,34.26,-0.01,1520,-47.7884,,34.26,-0.01,1575,-46.5352
34.36,-0.01,1465,-49.4913,,34.36,-0.01,1520,-47.8025,,34.36,-0.01,1575,-46.5848
34.46,-0.01,1465,-49.5906,,34.46,-0.01,1520,-47.9041,,34.46,-0.01,1575,-46.6511
34.56,-0.01,1465,-49.6734,,34.56,-0.01,1520,-48.0294,,34.56,-0.01,1575,-46.707
34.66,-0.01,1465,-49.8349,,34.66,-0.01,1520,-48.1754,,34.66,-0.01,1575,-46.8
34.76,-0.01,1465,-49.899,,34.76,-0.01,1520,-48.3397,,34.76,-0.01,1575,-46.9323
34.86,-0.01,1465,-49.9645,,34.86,-0.01,1520,-48.4279,,34.86,-0.01,1575,-47.0848
34.96,-0.01,1465,-49.9917,,34.96,-0.01,1520,-48.4789,,34.96,-0.01,1575,-47.137
35.06,-0.01,1465,-50.0722,,35.06,-0.01,1520,-48.5399,,35.06,-0.01,1575,-47.2982
35.16,-0.01,1465,-50.2351,,35.16,-0.01,1520,-48.6115,,35.16,-0.01,1575,-47.3829
35.26,-0.01,1465,-50.4578,,35.26,-0.01,1520,-48.6983,,35.26,-0.01,1575,-47.4733
35.36,-0.01,1465,-50.4982,,35.36,-0.01,1520,-48.789,,35.36,-0.01,1575,-47.4609
35.46,-0.01,1465,-50.6024,,35.46,-0.01,1520,-48.8597,,35.46,-0.01,1575,-47.58
35.56,-0.01,1465,-50.7743,,35.56,-0.01,1520,-48.9908,,35.56,-0.01,1575,-47.6447
35.66,-0.01,1465,-50.7519,,35.66,-0.01,1520,-49.0486,,35.66,-0.01,1575,-47.6874
35.76,-0.01,1465,-50.8362,,35.76,-0.01,1520,-49.1787,,35.76,-0.01,1575,-47.7952
35.86,-0.01,1465,-50.9539,,35.86,-0.01,1520,-49.2833,,35.86,-0.01,1575,-47.9683
35.96,-0.01,1465,-50.9982,,35.96,-0.01,1520,-49.3531,,35.96,-0.01,1575,-48.0088
36.06,-0.01,1465,-51.1023,,36.06,-0.01,1520,-49.451,,36.06,-0.01,1575,-48.1474
36.16,-0.01,1465,-51.2777,,36.16,-0.01,1520,-49.6155,,36.16,-0.01,1575,-48.2725
36.26,-0.01,1465,-51.4029,,36.26,-0.01,1520,-49.6194,,36.26,-0.01,1575,-48.3923
36.36,-0.01,1465,-51.5104,,36.36,-0.01,1520,-49.6427,,36.36,-0.01,1575,-48.4884
36.46,-0.01,1465,-51.6283,,36.46,-0.01,1520,-49.8204,,36.46,-0.01,1575,-48.5504
36.56,-0.01,1465,-51.8169,,36.56,-0.01,1520,-49.9026,,36.56,-0.01,1575,-48.6984
36.66,-0.01,1465,-51.8439,,36.66,-0.01,1520,-49.9893,,36.66,-0.01,1575,-48.931
36.76,-0.01,1465,-51.9038,,36.76,-0.01,1520,-50.1084,,36.76,-0.01,1575,-48.8843
36.86,-0.01,1465,-51.8896,,36.86,-0.01,1520,-50.1563,,36.86,-0.01,1575,-48.9744
36.96,-0.01,1465,-52.0342,,36.96,-0.01,1520,-50.3055,,36.96,-0.01,1575,-48.9122
37.06,-0.01,1465,-52.2086,,37.06,-0.01,1520,-50.5334,,37.06,-0.01,1575,-49.0698
37.16,-0.01,1465,-52.3165,,37.16,-0.01,1520,-50.7199,,37.16,-0.01,1575,-49.2004
37.26,-0.01,1465,-52.4095,,37.26,-0.01,1520,-50.748,,37.26,-0.01,1575,-49.2811
37.36,-0.01,1465,-52.5105,,37.36,-0.01,1520,-50.7346,,37.36,-0.01,1575,-49.4395
37.46,-0.01,1465,-52.6365,,37.46,-0.01,1520,-50.9399,,37.46,-0.01,1575,-49.5074
37.56,-0.01,1465,-52.6809,,37.56,-0.01,1520,-50.9138,,37.56,-0.01,1575,-49.6641
37.66,-0.01,1465,-52.6781,,37.66,-0.01,1520,-51.0607,,37.66,-0.01,1575,-49.6234
37.76,-0.01,1465,-52.8648,,37.76,-0.01,1520,-51.0374,,37.76,-0.01,1575,-49.7134
37.86,-0.01,1465,-52.8684,,37.86,-0.01,1520,-51.2597,,37.86,-0.01,1575,-49.7867
37.96,-0.01,1465,-53.0808,,37.96,-0.01,1520,-51.2202,,37.96,-0.01,1575,-49.7578
38.06,-0.01,1465,-53.1239,,38.06,-0.01,1520,-51.526,,38.06,-0.01,1575,-49.8849
38.16,-0.01,1465,-53.2032,,38.16,-0.01,1520,-51.4146,,38.16,-0.01,1575,-49.9176
38.26,-0.01,1465,-53.1834,,38.26,-0.01,1520,-51.596,,38.26,-0.01,1575,-50.0769
38.36,-0.01,1465,-53.3406,,38.36,-0.01,1520,-51.4849,,38.36,-0.01,1575,-50.2132
38.46,-0.01,1465,-53.467,,38.46,-0.01,1520,-51.571,,38.46,-0.01,1575,-50.2962
38.56,-0.01,1465,-53.5067,,38.56,-0.01,1520,-51.8028,,38.56,-0.01,1575,-50.3658
38.66,-0.01,1465,-53.6636,,38.66,-0.01,1520,-51.9178,,38.66,-0.01,1575,-50.5196
38.76,-0.01,1465,-53.8486,,38.76,-0.01,1520,-52.2051,,38.76,-0.01,1575,-50.6687
38.86,-0.01,1465,-53.8518,,38.86,-0.01,1520,-52.1311,,38.86,-0.01,1575,-50.768
38.96,-0.01,1465,-53.8921,,38.96,-0.01,1520,-52.3711,,38.96,-0.01,1575,-50.8974
39.06,-0.01,1465,-54.1053,,39.06,-0.01,1520,-52.352,,39.06,-0.01,1575,-50.8124
39.16,-0.01,1465,-54.1196,,39.16,-0.01,1520,-52.5206,,39.16,-0.01,1575,-50.8968
39.26,-0.01,1465,-54.1256,,39.26,-0.01,1520,-52.4629,,39.26,-0.01,1575,-50.7684
39.36,-0.01,1465,-54.2134,,39.36,-0.01,1520,-52.5812,,39.36,-0.01,1575,-51.0023
39.46,-0.01,1465,-54.245,,39.46,-0.01,1520,-52.4266,,39.46,-0.01,1575,-51.1163
39.56,-0.01,1465,-54.4378,,39.56,-0.01,1520,-52.4539,,39.56,-0.01,1575,-51.2314
39.66,-0.01,1465,-54.4612,,39.66,-0.01,1520,-52.7507,,39.66,-0.01,1575,-51.3769
39.76,-0.01,1465,-54.6584,,39.76,-0.01,1520,-52.7108,,39.76,-0.01,1575,-51.4041
39.86,-0.01,1465,-54.7424,,39.86,-0.01,1520,-53.0675,,39.86,-0.01,1575,-51.6786
39.96,-0.01,1465,-54.8009,,39.96,-0.01,1520,-53.0065,,39.96,-0.01,1575,-51.7711
40.06,-0.01,1465,-54.8478,,40.06,-0.01,1520,-53.0816,,40.06,-0.01,1575,-51.9123
40.16,-0.01,1465,-54.9271,,40.16,-0.01,1520,-53.1412,,40.16,-0.01,1575,-51.8647
40.26,-0.01,1465,-55.0274,,40.26,-0.01,1520,-53.2794,,40.26,-0.01,1575,-51.8778
40.36,-0.01,1465,-55.1013,,40.36,-0.01,1520,-53.5143,,40.36,-0.01,1575,-51.9606
40.46,-0.01,1465,-55.1962,,40.46,-0.01,1520,-53.6271,,40.46,-0.01,1575,-51.9064
40.56,-0.01,1465,-55.3692,,40.56,-0.01,1520,-53.7927,,40.56,-0.01,1575,-52.0691
40.66,-0.01,1465,-55.5119,,40.66,-0.01,1520,-53.6733,,40.66,-0.01,1575,-52.0619
40.76,-0.01,1465,-55.4938,,40.76,-0.01,1520,-53.7564,,40.76,-0.01,1575,-52.2222
40.86,-0.01,1465,-55.6427,,40.86,-0.01,1520,-53.9177,,40.86,-0.01,1575,-52.3242
40.96,-0.01,1465,-55.764,,40.96,-0.01,1520,-53.8205,,40.96,-0.01,1575,-52.411
41.06,-0.01,1465,-55.736,,41.06,-0.01,1520,-54.0143,,41.06,-0.01,1575,-52.6112
41.16,-0.01,1465,-56.0465,,41.16,-0.01,1520,-54.12,,41.16,-0.01,1575,-52.6414
41.26,-0.01,1465,-56.1388,,41.26,-0.01,1520,-54.0853,,41.26,-0.01,1575,-52.7678
41.36,-0.01,1465,-56.1888,,41.36,-0.01,1520,-54.2332,,41.36,-0.01,1575,-52.5706
41.46,-0.01,1465,-56.3059,,41.46,-0.01,1520,-54.2762,,41.46,-0.01,1575,-52.929
41.56,-0.01,1465,-56.2977,,41.56,-0.01,1520,-54.4879,,41.56,-0.01,1575,-52.9464
41.66,-0.01,1465,-56.2785,,41.66,-0.01,1520,-54.6399,,41.66,-0.01,1575,-53.0318
41.76,-0.01,1465,-56.4429,,41.76,-0.01,1520,-54.7377,,41.76,-0.01,1575,-53.3512
41.86,-0.01,1465,-56.3265,,41.86,-0.01,1520,-54.7264,,41.86,-0.01,1575,-53.2577
41.96,-0.01,1465,-56.4831,,41.96,-0.01,1520,-54.8013,,41.96,-0.01,1575,-53.3819
42.06,-0.01,1465,-56.6288,,42.06,-0.01,1520,-54.8645,,42.06,-0.01,1575,-53.4027
42.16,-0.01,1465,-56.7915,,42.16,-0.01,1520,-54.8698,,42.16,-0.01,1575,-53.4819
42.26,-0.01,1465,-56.9257,,42.26,-0.01,1520,-54.9449,,42.26,-0.01,1575,-53.5931
42.36,-0.01,1465,-57.1214,,42.36,-0.01,1520,-55.0461,,42.36,-0.01,1575,-53.5936
42.46,-0.01,1465,-57.1124,,42.46,-0.01,1520,-55.0622,,42.46,-0.01,1575,-53.7691
42.56,-0.01,1465,-57.1715,,42.56,-0.01,1520,-55.025,,42.56,-0.01,1575,-53.6684
42.66,-0.01,1465,-57.3413,,42.66,-0.01,1520,-55.2496,,42.66,-0.01,1575,-53.9525
42.76,-0.01,1465,-57.2701,,42.76,-0.01,1520,-55.3121,,42.76,-0.01,1575,-53.872
42.86,-0.01,1465,-57.3015,,42.86,-0.01,1520,-55.504,,42.86,-0.01,1575,-53.8711
42.96,-0.01,1465,-57.4346,,42.96,-0.01,1520,-55.7293,,42.96,-0.01,1575,-53.8011
43.06,-0.01,1465,-57.5218,,43.06,-0.01,1520,-55.6692,,43.06,-0.01,1575,-54.0911
43.16,-0.01,1465,-57.5714,,43.16,-0.01,1520,-55.7435,,43.16,-0.01,1575,-53.9306
43.26,-0.01,1465,-57.807,,43.26,-0.01,1520,-55.63,,43.26,-0.01,1575,-54.4128
43.36,-0.01,1465,-58.1017,,43.36,-0.01,1520,-55.7826,,43.36,-0.01,1575,-54.3692
43.46,-0.01,1465,-58.1461,,43.46,-0.01,1520,-55.9112,,43.46,-0.01,1575,-54.4117
43.56,-0.01,1465,-58.1538,,43.56,-0.01,1520,-56.0972,,43.56,-0.01,1575,-54.7147
43.66,-0.01,1465,-58.1783,,43.66,-0.01,1520,-56.2013,,43.66,-0.01,1575,-54.6565
43.76,-0.01,1465,-58.0941,,43.76,-0.01,1520,-56.2543,,43.76,-0.01,1575,-54.94
43.86,-0.01,1465,-58.1468,,43.86,-0.01,1520,-56.3013,,43.86,-0.01,1575,-54.9812
43.96,-0.01,1465,-58.2316,,43.96,-0.01,1520,-56.3079,,43.96,-0.01,1575,-54.9619
44.06,-0.01,1465,-58.3234,,44.06,-0.01,1520,-56.4378,,44.06,-0.01,1575,-55.0828
44.16,-0.01,1465,-58.3515,,44.16,-0.01,1520,-56.4036,,44.16,-0.01,1575,-54.9637
44.26,-0.01,1465,-58.5053,,44.26,-0.01,1520,-56.7619,,44.26,-0.01,1575,-55.0549
44.36,-0.01,1465,-58.6727,,44.36,-0.01,1520,-56.4985,,44.36,-0.01,1575,-55.1397
44.46,-0.01,1465,-58.606,,44.46,-0.01,1520,-56.787,,44.46,-0.01,1575,-55.1113
44.56,-0.01,1465,-58.7808,,44.56,-0.01,1520,-56.6522,,44.56,-0.01,1575,-55.2307
44.66,-0.01,1465,-58.9714,,44.66,-0.01,1520,-56.7149,,44.66,-0.01,1575,-55.2051
44.76,-0.01,1465,-59.0673,,44.76,-0.01,1520,-57.1921,,44.76,-0.01,1575,-55.4428
44.86,-0.01,1465,-59.3715,,44.86,-0.01,1520,-57.1798,,44.86,-0.01,1575,-55.6507
44.96,-0.01,1465,-59.5311,,44.96,-0.01,1520,-57.1464,,44.96,-0.01,1575,-56.0434
45.06,-0.01,1465,-59.4641,,45.06,-0.01,1520,-57.2777,,45.06,-0.01,1575,-56.0772
45.16,-0.01,1465,-59.696,,45.16,-0.01,1520,-57.2305,,45.16,-0.01,1575,-56.2917
45.26,-0.01,1465,-59.8209,,45.26,-0.01,1520,-57.3475,,45.26,-0.01,1575,-56.3368
45.36,-0.01,1465,-59.9997,,45.36,-0.01,1520,-57.593,,45.36,-0.01,1575,-56.3837
45.46,-0.01,1465,-60.2386,,45.46,-0.01,1520,-57.6154,,45.46,-0.01,1575,-56.4484
45.56,-0.01,1465,-60.3551,,45.56,-0.01,1520,-57.7295,,45.56,-0.01,1575,-56.3425
45.66,-0.01,1465,-60.2538,,45.66,-0.01,1520,-57.7727,,45.66,-0.01,1575,-56.6299
45.76,-0.01,1465,-60.0525,,45.76,-0.01,1520,-57.7822,,45.76,-0.01,1575,-56.6243
45.86,-0.01,1465,-60.4185,,45.86,-0.01,1520,-58.1215,,45.86,-0.01,1575,-56.8422
45.96,-0.01,1465,-60.2176,,45.96,-0.01,1520,-58.1882,,45.96,-0.01,1575,-56.6825
46.06,-0.01,1465,-60.5202,,46.06,-0.01,1520,-58.3714,,46.06,-0.01,1575,-56.7621
46.16,-0.01,1465,-60.4371,,46.16,-0.01,1520,-58.5583,,46.16,-0.01,1575,-56.6906
46.26,-0.01,1465,-60.8146,,46.26,-0.01,1520,-58.7129,,46.26,-0.01,1575,-56.7596
46.36,-0.01,1465,-60.7,,46.36,-0.01,1520,-58.7514,,46.36,-0.01,1575,-56.8893
46.46,-0.01,1465,-60.9959,,46.46,-0.01,1520,-58.9526,,46.46,-0.01,1575,-57.0901
46.56,-0.01,1465,-61.0113,,46.56,-0.01,1520,-59.0895,,46.56,-0.01,1575,-57.3656
46.66,-0.01,1465,-61.3005,,46.66,-0.01,1520,-59.1852,,46.66,-0.01,1575,-57.3351
46.76,-0.01,1465,-60.9647,,46.76,-0.01,1520,-59.1302,,46.76,-0.01,1575,-57.4727
46.86,-0.01,1465,-61.0499,,46.86,-0.01,1520,-59.2217,,46.86,-0.01,1575,-57.5838
46.96,-0.01,1465,-60.9121,,46.96,-0.01,1520,-59.1268,,46.96,-0.01,1575,-57.6007
47.06,-0.01,1465,-61.0328,,47.06,-0.01,1520,-59.2009,,47.06,-0.01,1575,-57.4287
47.16,-0.01,1465,-61.099,,47.16,-0.01,1520,-58.9983,,47.16,-0.01,1575,-57.1654
47.26,-0.01,1465,-61.0002,,47.26,-0.01,1520,-59.3438,,47.26,-0.01,1575,-57.2932
47.36,-0.01,1465,-61.3197,,47.36,-0.01,1520,-59.3542,,47.36,-0.01,1575,-57.2904
47.46,-0.01,1465,-61.2276,,47.46,-0.01,1520,-59.684,,47.46,-0.01,1575,-57.7875
47.56,-0.01,1465,-61.3624,,47.56,-0.01,1520,-59.8931,,47.56,-0.01,1575,-57.9002
47.66,-0.01,1465,-62.0885,,47.66,-0.01,1520,-60.0053,,47.66,-0.01,1575,-58.0408
47.76,-0.01,1465,-62.0773,,47.76,-0.01,1520,-59.9251,,47.76,-0.01,1575,-58.1086
47.86,-0.01,1465,-62.2257,,47.86,-0.01,1520,-60.3458,,47.86,-0.01,1575,-58.2912
47.96,-0.01,1465,-62.3126,,47.96,-0.01,1520,-60.503,,47.96,-0.01,1575,-58.6645
48.06,-0.01,1465,-62.3799,,48.06,-0.01,1520,-60.5943,,48.06,-0.01,1575,-58.5362
48.16,-0.01,1465,-62.1574,,48.16,-0.01,1520,-60.6083,,48.16,-0.01,1575,-58.344
48.26,-0.01,1465,-62.2462,,48.26,-0.01,1520,-60.4553,,48.26,-0.01,1575,-58.5853
48.36,-0.01,1465,-62.1747,,48.36,-0.01,1520,-60.3058,,48.36,-0.01,1575,-58.7405
48.46,-0.01,1465,-62.2119,,48.46,-0.01,1520,-60.4597,,48.46,-0.01,1575,-58.7798
48.56,-0.01,1465,-62.2276,,48.56,-0.01,1520,-59.8729,,48.56,-0.01,1575,-58.8714
48.66,-0.01,1465,-62.5432,,48.66,-0.01,1520,-60.2661,,48.66,-0.01,1575,-59.0198
48.76,-0.01,1465,-62.909,,48.76,-0.01,1520,-60.4784,,48.76,-0.01,1575,-58.885
48.86,-0.01,1465,-62.9515,,48.86,-0.01,1520,-60.6977,,48.86,-0.01,1575,-58.9759
48.96,-0.01,1465,-63.3232,,48.96,-0.01,1520,-61.1212,,48.96,-0.01,1575,-59.0776
49.06,-0.01,1465,-63.6576,,49.06,-0.01,1520,-61.2602,,49.06,-0.01,1575,-59.0853
49.16,-0.01,1465,-63.5995,,49.16,-0.01,1520,-61.392,,49.16,-0.01,1575,-59.3352
49.26,-0.01,1465,-63.5667,,49.26,-0.01,1520,-61.4972,,49.26,-0.01,1575,-59.7942
49.36,-0.01,1465,-63.9354,,49.36,-0.01,1520,-61.6388,,49.36,-0.01,1575,-59.9381
49.46,-0.01,1465,-63.633,,49.46,-0.01,1520,-61.5803,,49.46,-0.01,1575,-60.0678
49.56,-0.01,1465,-63.9868,,49.56,-0.01,1520,-61.7401,,49.56,-0.01,1575,-59.9682
49.66,-0.01,1465,-64.004,,49.66,-0.01,1520,-61.4953,,49.66,-0.01,1575,-60.0106
49.76,-0.01,1465,-63.9545,,49.76,-0.01,1520,-61.6189,,49.76,-0.01,1575,-60.0844
49.86,-0.01,1465,-64.3843,,49.86,-0.01,1520,-61.6888,,49.86,-0.01,1575,-60.6949
49.96,-0.01,1465,-64.3122,,49.96,-0.01,1520,-61.611,,49.96,-0.01,1575,-60.5012
50.06,-0.01,1465,-64.6109,,50.06,-0.01,1520,-62.2204,,50.06,-0.01,1575,-60.6656
50.16,-0.01,1465,-64.8615,,50.16,-0.01,1520,-62.4471,,50.16,-0.01,1575,-60.2646
50.26,-0.01,1465,-64.9687,,50.26,-0.01,1520,-62.6195,,50.26,-0.01,1575,-59.9295
50.36,-0.01,1465,-64.8378,,50.36,-0.01,1520,-62.9368,,50.36,-0.01,1575,-60.1239
50.46,-0.01,1465,-65.3172,,50.46,-0.01,1520,-62.7989,,50.46,-0.01,1575,-60.5651
50.56,-0.01,1465,-65.6132,,50.56,-0.01,1520,-62.7228,,50.56,-0.01,1575,-60.6648
50.66,-0.01,1465,-65.9438,,50.66,-0.01,1520,-62.8144,,50.66,-0.01,1575,-61.2857
50.76,-0.01,1465,-66.1417,,50.76,-0.01,1520,-62.9651,,50.76,-0.01,1575,-61.3864
50.86,-0.01,1465,-66.0071,,50.86,-0.01,1520,-63.0374,,50.86,-0.01,1575,-61.7117
50.96,-0.01,1465,-66.0565,,50.96,-0.01,1520,-63.5081,,50.96,-0.01,1575,-61.6806
51.06,-0.01,1465,-66.0623,,51.06,-0.01,1520,-63.429,,51.06,-0.01,1575,-61.8171
51.16,-0.01,1465,-66.0127,,51.16,-0.01,1520,-63.4579,,51.16,-0.01,1575,-61.9065
51.26,-0.01,1465,-65.9427,,51.26,-0.01,1520,-63.622,,51.26,-0.01,1575,-61.854
51.36,-0.01,1465,-65.5356,,51.36,-0.01,1520,-63.5829,,51.36,-0.01,1575,-61.8267
51.46,-0.01,1465,-65.6079,,51.46,-0.01,1520,-63.5029,,51.46,-0.01,1575,-61.8021
51.56,-0.01,1465,-65.6016,,51.56,-0.01,1520,-63.8467,,51.56,-0.01,1575,-61.8232
51.66,-0.01,1465,-65.6539,,51.66,-0.01,1520,-64.0378,,51.66,-0.01,1575,-62.3698
51.76,-0.01,1465,-65.664,,51.76,-0.01,1520,-64.3818,,51.76,-0.01,1575,-61.9456
51.86,-0.01,1465,-66.2067,,51.86,-0.01,1520,-64.2765,,51.86,-0.01,1575,-62.7114
51.96,-0.01,1465,-66.1733,,51.96,-0.01,1520,-64.0184,,51.96,-0.01,1575,-62.0619
52.06,-0.01,1465,-66.6272,,52.06,-0.01,1520,-64.1837,,52.06,-0.01,1575,-62.0503
52.16,-0.01,1465,-66.3918,,52.16,-0.01,1520,-64.1069,,52.16,-0.01,1575,-61.9178
52.26,-0.01,1465,-66.6229,,52.26,-0.01,1520,-63.9941,,52.26,-0.01,1575,-62.0079
52.36,-0.01,1465,-66.473,,52.36,-0.01,1520,-63.7878,,52.36,-0.01,1575,-61.8451
52.46,-0.01,1465,-66.8308,,52.46,-0.01,1520,-64.0455,,52.46,-0.01,1575,-62.0821
52.56,-0.01,1465,-66.6815,,52.56,-0.01,1520,-64.2052,,52.56,-0.01,1575,-62.0788
52.66,-0.01,1465,-67.0906,,52.66,-0.01,1520,-64.4949,,52.66,-0.01,1575,-62.7536
52.76,-0.01,1465,-67.8053,,52.76,-0.01,1520,-64.5459,,52.76,-0.01,1575,-62.7346
52.86,-0.01,1465,-67.6243,,52.86,-0.01,1520,-64.8428,,52.86,-0.01,1575,-62.908
52.96,-0.01,1465,-68.3696,,52.96,-0.01,1520,-64.6828,,52.96,-0.01,1575,-62.8903
53.06,-0.01,1465,-67.5238,,53.06,-0.01,1520,-64.9639,,53.06,-0.01,1575,-62.9399
53.16,-0.01,1465,-67.597,,53.16,-0.01,1520,-64.6103,,53.16,-0.01,1575,-63.1064
53.26,-0.01,1465,-67.8626,,53.26,-0.01,1520,-64.8746,,53.26,-0.01,1575,-63.0101
53.36,-0.01,1465,-67.36,,53.36,-0.01,1520,-64.6758,,53.36,-0.01,1575,-63.0212
53.46,-0.01,1465,-67.9082,,53.46,-0.01,1520,-64.6337,,53.46,-0.01,1575,-63.1827
53.56,-0.01,1465,-67.6043,,53.56,-0.01,1520,-64.9189,,53.56,-0.01,1575,-63.4181
53.66,-0.01,1465,-67.9872,,53.66,-0.01,1520,-64.9973,,53.66,-0.01,1575,-64.1094
53.76,-0.01,1465,-67.5604,,53.76,-0.01,1520,-65.2036,,53.76,-0.01,1575,-63.7361
53.86,-0.01,1465,-67.4836,,53.86,-0.01,1520,-65.542,,53.86,-0.01,1575,-63.6239
53.96,-0.01,1465,-67.4278,,53.96,-0.01,1520,-66.5043,,53.96,-0.01,1575,-63.6346
54.06,-0.01,1465,-67.8968,,54.06,-0.01,1520,-66.3377,,54.06,-0.01,1575,-63.6401
54.16,-0.01,1465,-68.0202,,54.16,-0.01,1520,-66.894,,54.16,-0.01,1575,-63.6174
54.26,-0.01,1465,-68.9931,,54.26,-0.01,1520,-66.6985,,54.26,-0.01,1575,-64.0446
54.36,-0.01,1465,-69.6303,,54.36,-0.01,1520,-66.2488,,54.36,-0.01,1575,-63.9843
54.46,-0.01,1465,-69.7175,,54.46,-0.01,1520,-66.193,,54.46,-0.01,1575,-64.2981
54.56,-0.01,1465,-69.1777,,54.56,-0.01,1520,-66.0941,,54.56,-0.01,1575,-64.3071
54.66,-0.01,1465,-68.7804,,54.66,-0.01,1520,-65.964,,54.66,-0.01,1575,-64.0316
54.76,-0.01,1465,-68.4553,,54.76,-0.01,1520,-66.6251,,54.76,-0.01,1575,-64.0632
54.86,-0.01,1465,-68.3787,,54.86,-0.01,1520,-66.6869,,54.86,-0.01,1575,-64.0018
54.96,-0.01,1465,-68.6383,,54.96,-0.01,1520,-66.8474,,54.96,-0.01,1575,-64.1255
55.06,-0.01,1465,-68.3126,,55.06,-0.01,1520,-67.1556,,55.06,-0.01,1575,-63.9585
55.16,-0.01,1465,-68.2612,,55.16,-0.01,1520,-67.6656,,55.16,-0.01,1575,-64.848
55.26,-0.01,1465,-68.4543,,55.26,-0.01,1520,-67.9986,,55.26,-0.01,1575,-64.6809
55.36,-0.01,1465,-68.8175,,55.36,-0.01,1520,-67.9768,,55.36,-0.01,1575,-64.6871
55.46,-0.01,1465,-69.4602,,55.46,-0.01,1520,-67.7766,,55.46,-0.01,1575,-64.1269
55.56,-0.01,1465,-70.0473,,55.56,-0.01,1520,-66.9718,,55.56,-0.01,1575,-64.5242
55.66,-0.01,1465,-70.1196,,55.66,-0.01,1520,-67.0772,,55.66,-0.01,1575,-64.396
55.76,-0.01,1465,-69.4239,,55.76,-0.01,1520,-67.2322,,55.76,-0.01,1575,-65.3682
55.86,-0.01,1465,-68.9488,,55.86,-0.01,1520,-67.7729,,55.86,-0.01,1575,-65.8963
55.96,-0.01,1465,-69.8273,,55.96,-0.01,1520,-68.3465,,55.96,-0.01,1575,-65.8896
56.06,-0.01,1465,-70.0936,,56.06,-0.01,1520,-68.0655,,56.06,-0.01,1575,-66.4913
56.16,-0.01,1465,-71.0956,,56.16,-0.01,1520,-67.8583,,56.16,-0.01,1575,-66.1135
56.26,-0.01,1465,-71.2354,,56.26,-0.01,1520,-67.315,,56.26,-0.01,1575,-66.1532
56.36,-0.01,1465,-71.3275,,56.36,-0.01,1520,-67.7532,,56.36,-0.01,1575,-65.9895
56.46,-0.01,1465,-71.2691,,56.46,-0.01,1520,-68.0729,,56.46,-0.01,1575,-65.9904
56.56,-0.01,1465,-71.5774,,56.56,-0.01,1520,-68.5226,,56.56,-0.01,1575,-65.9981
56.66,-0.01,1465,-71.056,,56.66,-0.01,1520,-68.2721,,56.66,-0.01,1575,-65.5007
56.76,-0.01,1465,-71.2675,,56.76,-0.01,1520,-67.9672,,56.76,-0.01,1575,-65.0781
56.86,-0.01,1465,-71.5627,,56.86,-0.01,1520,-68.1702,,56.86,-0.01,1575,-65.7579
56.96,-0.01,1465,-71.4501,,56.96,-0.01,1520,-68.0369,,56.96,-0.01,1575,-66.9633
57.06,-0.01,1465,-71.6441,,57.06,-0.01,1520,-68.0803,,57.06,-0.01,1575,-67.0669
57.16,-0.01,1465,-71.1147,,57.16,-0.01,1520,-67.6925,,57.16,-0.01,1575,-67.197
57.26,-0.01,1465,-71.4383,,57.26,-0.01,1520,-67.5729,,57.26,-0.01,1575,-67.3051
57.36,-0.01,1465,-71.0072,,57.36,-0.01,1520,-67.6551,,57.36,-0.01,1575,-66.7418
57.46,-0.01,1465,-71.4521,,57.46,-0.01,1520,-68.0299,,57.46,-0.01,1575,-66.8805
57.56,-0.01,1465,-71.0948,,57.56,-0.01,1520,-67.8324,,57.56,-0.01,1575,-67.0798
57.66,-0.01,1465,-71.0462,,57.66,-0.01,1520,-68.7907,,57.66,-0.01,1575,-67.101
57.76,-0.01,1465,-71.5826,,57.76,-0.01,1520,-70.6699,,57.76,-0.01,1575,-67.6217
57.86,-0.01,1465,-71.9023,,57.86,-0.01,1520,-70.6859,,57.86,-0.01,1575,-67.8942
57.96,-0.01,1465,-72.0444,,57.96,-0.01,1520,-70.6977,,57.96,-0.01,1575,-67.9734
58.06,-0.01,1465,-72.4066,,58.06,-0.01,1520,-71.1384,,58.06,-0.01,1575,-67.9547
58.16,-0.01,1465,-72.7498,,58.16,-0.01,1520,-70.9413,,58.16,-0.01,1575,-68.4125
58.26,-0.01,1465,-72.5654,,58.26,-0.01,1520,-71.0318,,58.26,-0.01,1575,-68.6786
58.36,-0.01,1465,-72.6531,,58.36,-0.01,1520,-70.9374,,58.36,-0.01,1575,-68.8019
58.46,-0.01,1465,-73.1913,,58.46,-0.01,1520,-71.171,,58.46,-0.01,1575,-68.6318
58.56,-0.01,1465,-73.2395,,58.56,-0.01,1520,-71.3026,,58.56,-0.01,1575,-68.5164
58.66,-0.01,1465,-72.6344,,58.66,-0.01,1520,-71.6466,,58.66,-0.01,1575,-68.458
58.76,-0.01,1465,-72.9408,,58.76,-0.01,1520,-71.8831,,58.76,-0.01,1575,-68.1216
58.86,-0.01,1465,-72.7393,,58.86,-0.01,1520,-71.0783,,58.86,-0.01,1575,-67.6133
58.96,-0.01,1465,-72.1174,,58.96,-0.01,1520,-70.5678,,58.96,-0.01,1575,-67.1482
59.06,-0.01,1465,-72.6568,,59.06,-0.01,1520,-70.4323,,59.06,-0.01,1575,-67.4676
59.16,-0.01,1465,-72.3185,,59.16,-0.01,1520,-70.0956,,59.16,-0.01,1575,-68.4118
59.26,-0.01,1465,-72.2564,,59.26,-0.01,1520,-70.5083,,59.26,-0.01,1575,-68.5537
59.36,-0.01,1465,-71.8583,,59.36,-0.01,1520,-70.4284,,59.36,-0.01,1575,-68.4221
59.46,-0.01,1465,-71.6619,,59.46,-0.01,1520,-70.5846,,59.46,-0.01,1575,-68.2212
59.56,-0.01,1465,-72.46,,59.56,-0.01,1520,-70.7902,,59.56,-0.01,1575,-68.796
59.66,-0.01,1465,-72.449,,59.66,-0.01,1520,-70.7977,,59.66,-0.01,1575,-68.8222
59.76,-0.01,1465,-71.6408,,59.76,-0.01,1520,-71.3285,,59.76,-0.01,1575,-68.2164
59.86,-0.01,1465,-72.3768,,59.86,-0.01,1520,-71.3923,,59.86,-0.01,1575,-69.0714
59.96,-0.01,1465,-72.4824,,59.96,-0.01,1520,-71.7839,,59.96,-0.01,1575,-68.8833
